Timestamp	AFz	AF3	AF4	AF7	AF8	Pz	P3	P4	2023-06-28 15:10:09.085	fs=125
607520.180	336.468	-743.866	-88.215	-2864.897	2125.204	2479.255	2636.313	1008.213
607520.188	337.660	-740.290	-94.175	-2864.897	2129.674	2499.521	2657.175	1018.643
607520.196	329.316	-747.442	-116.825	-2866.089	2131.760	2494.156	2656.579	1013.279
607520.204	329.018	-751.019	-114.143	-2874.434	2126.992	2493.858	2651.215	1020.730
607520.212	337.064	-739.098	-101.030	-2876.818	2129.674	2497.435	2660.155	1015.067
607520.220	331.104	-747.442	-91.791	-2885.461	2127.588	2476.275	2639.890	1003.146
607520.228	329.912	-753.105	-96.262	-2882.183	2128.482	2492.368	2659.857	1007.617
607520.236	326.037	-764.132	-106.096	-2883.375	2134.740	2480.745	2650.917	998.080
607520.244	320.375	-763.237	-117.719	-2889.633	2130.270	2485.216	2646.446	1009.703
607520.252	322.163	-758.469	-121.891	-2886.951	2133.548	2497.733	2658.963	1013.577
607520.260	314.116	-772.178	-128.150	-2900.660	2121.329	2470.017	2630.651	999.570
607520.268	311.136	-770.986	-126.362	-2902.746	2116.859	2487.600	2649.427	1005.232
607520.276	310.838	-772.774	-122.190	-2895.594	2127.886	2482.533	2647.638	998.974
607520.284	306.666	-777.841	-127.852	-2897.978	2125.800	2486.706	2650.321	1007.915
607520.292	314.116	-773.370	-118.613	-2900.660	2135.336	2496.242	2662.241	1007.915
607520.300	307.560	-773.668	-131.726	-2905.428	2126.992	2474.785	2637.506	1001.358
607520.308	295.043	-791.848	-146.925	-2911.985	2107.918	2498.925	2658.069	1017.153
607520.316	311.434	-778.437	-107.288	-2899.766	2136.230	2490.878	2650.917	1006.126
607520.324	340.343	-739.992	-83.148	-2872.646	2160.668	2496.839	2656.877	1014.769
607520.332	360.906	-716.448	-82.850	-2818.108	2158.880	2515.614	2680.421	1021.624
607520.340	359.416	-720.024	-99.540	-2802.908	2144.873	2499.223	2665.222	1020.730
607520.348	360.310	-709.891	-104.010	-2799.034	2123.416	2515.316	2678.037	1029.670
607520.356	366.271	-706.613	-90.897	-2794.564	2119.541	2506.077	2672.672	1016.855
607520.364	368.059	-701.249	-84.937	-2791.285	2108.812	2509.654	2679.527	1027.882
607520.372	379.086	-695.884	-81.956	-2754.629	2113.879	2522.171	2695.024	1029.372
607520.380	372.529	-703.335	-86.725	-2758.801	2109.706	2503.395	2674.460	1020.432
607520.388	363.886	-709.295	-100.434	-2762.675	2103.746	2528.727	2698.600	1038.611
607520.396	357.926	-714.958	-104.010	-2769.530	2101.064	2514.124	2686.381	1026.988
607520.414	344.217	-724.494	-123.978	-2784.431	2091.229	2512.634	2684.891	1030.564
607520.422	347.495	-715.256	-123.084	-2770.424	2084.672	2523.065	2699.494	1028.776
607520.430	352.859	-724.792	-101.924	-2776.086	2089.441	2503.395	2679.825	1023.114
607520.438	365.674	-710.785	-85.831	-2770.722	2103.448	2535.582	2706.349	1043.975
607520.446	359.118	-709.891	-92.983	-2766.251	2099.574	2520.979	2693.236	1031.756
607520.454	338.554	-723.004	-118.911	-2786.517	2078.414	2515.912	2684.295	1037.717
607520.462	339.448	-719.428	-123.978	-2782.643	2075.732	2523.363	2696.514	1036.823
607520.470	343.323	-719.726	-103.712	-2775.192	2078.116	2496.541	2667.904	1022.518
607520.478	353.158	-708.699	-95.665	-2761.483	2081.394	2515.614	2681.911	1031.756
607520.486	342.727	-722.408	-112.951	-2773.106	2074.540	2491.772	2661.943	1012.981
607520.494	337.064	-731.051	-112.355	-2788.305	2067.983	2491.176	2663.732	1018.941
607520.502	342.131	-723.898	-107.288	-2780.557	2070.665	2503.693	2680.719	1020.432
607520.510	336.170	-718.534	-120.103	-2774.894	2067.983	2479.851	2653.301	1006.722
607520.518	339.746	-717.342	-112.951	-2773.702	2068.579	2501.607	2671.480	1018.345
607520.526	336.468	-723.302	-120.699	-2769.530	2064.705	2487.600	2663.135	1007.915
607520.534	326.335	-728.071	-137.389	-2785.921	2056.360	2494.454	2665.520	1021.922
607520.542	342.131	-711.083	-105.798	-2765.357	2051.592	2511.144	2680.421	1028.478
607520.550	341.535	-716.150	-102.818	-2765.954	2053.976	2487.600	2655.089	1018.643
607520.558	345.111	-704.527	-107.288	-2761.781	2058.744	2506.375	2675.056	1029.074
607520.566	345.409	-703.335	-101.030	-2761.185	2058.744	2488.196	2661.943	1014.769
607520.574	342.131	-711.381	-103.712	-2768.338	2054.274	2487.302	2660.155	1020.730
607520.582	343.919	-708.401	-105.500	-2763.271	2053.976	2496.541	2672.076	1019.835
607520.590	339.448	-712.276	-110.865	-2770.722	2053.678	2470.017	2644.658	1010.001
607520.598	347.495	-692.606	-106.096	-2743.602	2045.631	2492.368	2666.414	1022.816
607520.606	326.931	-708.401	-121.593	-2753.437	2016.425	2487.004	2661.646	1020.730
607520.614	310.838	-732.541	-127.256	-2779.365	2025.068	2478.063	2646.744	1020.133
607520.622	330.508	-705.421	-106.692	-2771.318	2051.294	2475.977	2646.744	1009.703
607520.630	317.097	-715.852	-110.269	-2798.140	2050.400	2450.645	2617.240	998.378
607520.635	325.143	-711.083	-100.136	-2802.014	2064.705	2471.805	2636.313	1008.213
607520.643	320.673	-716.448	-98.944	-2817.810	2073.646	2449.155	2619.028	992.119
607520.651	305.474	-725.687	-105.500	-2838.969	2073.050	2444.685	2607.107	996.292
607520.659	318.587	-715.852	-90.301	-2835.691	2080.500	2456.307	2619.624	1000.762
607520.667	307.262	-727.177	-102.818	-2846.420	2070.069	2428.293	2591.312	985.861
607520.675	296.533	-734.925	-114.143	-2853.274	2062.619	2448.857	2610.683	996.888
607520.683	295.639	-734.627	-115.335	-2850.294	2061.427	2433.360	2600.551	988.841
607520.691	295.341	-735.521	-114.441	-2849.996	2055.168	2432.466	2595.186	993.013
607520.699	303.686	-731.647	-99.242	-2841.949	2047.718	2437.830	2605.915	987.947
607520.707	292.361	-735.223	-109.076	-2852.976	2044.737	2414.286	2580.583	978.410
607520.715	288.486	-739.992	-111.163	-2854.764	2038.181	2433.360	2594.888	990.629
607520.723	287.294	-742.376	-116.229	-2854.168	2039.373	2416.968	2580.583	982.285
607520.731	286.102	-742.078	-119.209	-2849.102	2037.287	2425.909	2582.371	991.523
607520.739	295.937	-726.581	-109.673	-2826.154	2039.671	2437.532	2597.570	991.821
607520.747	298.619	-717.044	-101.328	-2817.214	2038.181	2410.412	2572.834	981.092
607520.755	297.427	-717.342	-104.606	-2815.127	2028.942	2425.909	2586.842	984.669
607520.763	291.765	-723.898	-115.037	-2819.896	2020.299	2403.259	2568.066	970.662
607520.771	287.294	-727.475	-115.335	-2818.704	2012.849	2402.365	2566.278	976.920
607520.779	294.149	-717.938	-109.673	-2809.465	2011.955	2411.008	2579.987	974.536
607520.787	286.698	-722.706	-109.673	-2816.021	2011.061	2391.934	2557.039	969.768
607520.795	302.494	-705.719	-96.560	-2791.882	2010.465	2408.922	2573.430	976.920
607520.803	314.116	-694.096	-90.003	-2769.530	2008.379	2391.040	2566.874	961.721
607520.811	304.878	-694.394	-105.202	-2768.040	1994.967	2397.299	2564.490	971.556
607520.819	304.878	-692.010	-106.692	-2765.060	1989.603	2407.432	2571.940	969.470
607520.827	302.792	-697.374	-101.328	-2762.675	1986.027	2384.186	2547.801	963.211
607520.835	301.599	-698.268	-96.560	-2762.675	1984.537	2398.789	2563.298	970.960
607520.843	296.235	-697.076	-102.520	-2767.444	1975.298	2370.775	2539.158	950.396
607520.851	288.486	-702.739	-119.507	-2766.251	1958.311	2370.477	2534.389	957.251
607520.855	297.725	-693.202	-110.567	-2756.119	1957.119	2387.166	2554.655	964.105
607520.863	299.215	-699.162	-100.136	-2764.165	1966.059	2360.642	2525.747	953.376
607520.871	302.494	-692.904	-92.685	-2746.284	1968.741	2374.053	2537.966	961.125
607520.879	307.560	-687.838	-90.003	-2729.893	1970.828	2355.874	2525.151	949.800
607520.887	297.129	-694.394	-98.348	-2745.092	1957.119	2358.854	2520.382	956.058
607520.895	289.083	-697.672	-101.626	-2740.622	1944.900	2365.708	2529.323	954.270
607520.903	286.102	-696.480	-116.229	-2729.893	1939.237	2344.251	2509.355	946.820
607520.911	292.063	-690.222	-100.136	-2717.972	1935.959	2362.728	2524.555	958.443
607520.919	298.619	-683.665	-79.572	-2712.011	1945.496	2345.741	2509.952	946.820
607520.927	298.321	-683.665	-84.639	-2716.184	1944.602	2347.529	2509.355	957.847
607520.935	302.494	-681.877	-88.215	-2708.435	1940.131	2353.191	2517.104	956.357
607520.943	289.977	-697.374	-98.944	-2708.137	1926.720	2323.091	2485.812	940.561
607520.951	289.083	-685.155	-100.732	-2701.282	1912.117	2339.184	2498.329	948.608
607520.959	285.804	-685.751	-107.884	-2695.918	1902.878	2316.534	2476.871	933.409
607520.967	287.592	-694.394	-107.586	-2695.322	1898.110	2319.813	2476.573	943.542
607520.975	295.043	-689.626	-103.712	-2684.295	1897.812	2330.542	2492.368	939.071
607520.983	298.917	-681.281	-90.897	-2678.931	1907.051	2309.978	2472.699	931.025
607520.991	307.858	-677.407	-67.353	-2662.241	1907.945	2326.667	2487.302	942.647
607520.999	303.984	-683.367	-73.612	-2654.493	1903.772	2304.912	2467.632	926.852
607521.007	297.725	-683.069	-95.367	-2656.877	1891.851	2303.421	2464.950	933.409
607521.015	303.686	-690.818	-91.493	-2665.818	1890.659	2308.786	2476.871	930.429
607521.023	295.937	-698.268	-95.367	-2663.135	1889.467	2287.626	2453.625	921.488
607521.031	303.984	-678.599	-79.870	-2639.592	1885.891	2305.508	2471.208	931.621
607521.039	306.368	-673.532	-73.016	-2626.479	1892.745	2289.712	2456.307	919.700
607521.047	296.533	-678.897	-88.811	-2625.287	1886.487	2286.732	2447.069	925.660
607521.055	296.235	-687.540	-92.089	-2624.690	1880.825	2290.606	2453.327	921.488
607521.063	290.275	-693.798	-92.983	-2640.784	1875.460	2266.169	2427.399	913.739
607521.071	294.447	-679.195	-84.639	-2630.055	1876.056	2280.176	2443.492	921.786
607521.088	301.898	-678.301	-73.016	-2620.220	1883.209	2262.890	2428.889	909.567
607521.096	298.023	-679.195	-79.572	-2608.299	1886.189	2268.553	2430.081	922.382
607521.104	309.944	-675.023	-71.526	-2591.610	1890.361	2273.917	2439.320	918.508
607521.112	298.619	-677.109	-81.956	-2595.186	1879.036	2245.903	2407.432	906.885
607521.120	297.129	-671.744	-82.552	-2587.140	1875.460	2263.784	2426.803	915.825
607521.128	302.196	-666.380	-67.651	-2586.543	1879.036	2247.691	2415.478	906.289
607521.136	294.447	-678.301	-76.890	-2591.312	1872.480	2245.009	2408.624	912.547
607521.144	294.447	-676.811	-81.956	-2577.901	1867.115	2249.181	2414.286	909.269
607521.152	285.208	-682.175	-87.917	-2580.881	1859.367	2222.359	2383.590	894.666
607521.160	289.977	-672.936	-82.254	-2571.344	1860.559	2241.433	2404.750	903.606
607521.168	299.215	-665.486	-73.612	-2563.298	1869.798	2225.042	2394.021	895.858
607521.176	295.937	-671.446	-76.592	-2562.106	1865.923	2227.724	2388.656	902.712
607521.184	293.851	-666.678	-77.188	-2552.867	1858.771	2237.260	2397.895	904.799
607521.192	287.592	-666.678	-81.360	-2555.251	1854.002	2211.928	2369.583	892.878
607521.200	294.745	-659.227	-77.188	-2546.906	1855.791	2222.955	2388.358	898.838
607521.208	304.580	-645.816	-67.055	-2533.793	1865.625	2203.286	2373.159	887.811
607521.216	298.023	-650.287	-67.949	-2528.727	1859.069	2198.815	2363.622	891.984
607521.224	299.215	-646.412	-66.459	-2518.594	1854.896	2208.054	2373.159	892.580
607521.232	289.381	-652.671	-79.870	-2522.469	1843.870	2188.980	2348.423	887.215
607521.240	292.361	-649.095	-74.208	-2517.998	1841.784	2201.796	2366.006	893.772
607521.248	292.361	-654.161	-71.824	-2517.700	1845.360	2181.828	2351.403	878.274
607521.256	282.526	-651.777	-75.102	-2516.210	1829.267	2183.914	2347.827	888.109
607521.264	326.335	-599.623	-28.908	-2459.586	1849.830	2186.895	2351.403	886.321
607521.272	339.448	-590.086	-16.689	-2444.386	1846.552	2159.178	2319.813	874.698
607521.280	357.032	-574.887	-5.662	-2427.399	1841.485	2175.868	2335.310	880.659
607521.288	374.019	-549.853	5.960	-2400.577	1848.042	2163.052	2327.859	872.314
607521.296	373.721	-549.853	9.537	-2391.934	1845.062	2166.331	2326.071	879.467
607521.304	368.953	-543.892	5.364	-2394.915	1836.419	2168.715	2331.734	876.188
607521.291	354.648	-556.707	0.894	-2396.107	1826.882	2143.085	2302.825	867.546
607521.299	351.369	-564.754	-1.192	-2397.597	1820.922	2160.668	2317.727	877.082
607521.307	344.217	-573.993	-6.557	-2401.173	1816.154	2139.509	2298.653	861.585
607521.315	337.958	-575.483	-15.199	-2404.153	1808.107	2140.701	2296.269	869.632
607521.323	336.766	-571.013	-23.544	-2395.809	1801.252	2144.873	2302.527	866.652
607521.331	320.971	-581.741	-33.677	-2400.577	1785.159	2117.753	2270.043	854.731
607521.339	321.865	-585.616	-32.187	-2403.259	1768.768	2133.548	2285.838	863.969
607521.347	329.316	-576.377	-25.034	-2386.868	1773.238	2114.475	2269.149	850.260
607521.355	335.872	-567.436	-7.153	-2370.775	1783.073	2112.389	2266.169	858.307
607521.363	334.084	-565.350	-8.345	-2362.132	1783.669	2115.369	2273.619	858.307
607521.371	319.779	-568.032	-30.696	-2366.006	1772.344	2086.461	2243.221	841.916
607521.379	319.183	-566.244	-36.657	-2356.768	1751.781	2101.064	2259.314	849.664
607521.387	316.501	-573.099	-29.504	-2359.450	1745.820	2076.626	2240.240	834.167
607521.395	316.799	-572.205	-22.650	-2362.430	1744.628	2075.732	2235.472	837.147
607521.403	330.508	-553.131	-2.980	-2336.204	1754.463	2090.335	2252.162	844.896
607521.411	314.713	-567.436	-14.901	-2337.396	1744.032	2063.513	2222.061	830.293
607521.419	310.242	-571.013	-27.120	-2344.847	1721.084	2078.414	2234.280	840.425
607521.427	307.262	-571.609	-33.677	-2339.184	1727.343	2056.062	2214.611	828.207
607521.435	310.838	-562.370	-23.246	-2322.495	1733.005	2060.532	2214.909	838.041
607521.443	310.242	-562.072	-20.862	-2317.131	1716.912	2065.599	2220.571	833.571
607521.451	301.898	-572.503	-29.802	-2328.753	1707.971	2040.565	2197.325	827.312
607521.459	297.129	-571.013	-42.021	-2328.157	1694.858	2062.619	2214.015	844.002
607521.467	304.878	-557.601	-25.630	-2308.190	1684.725	2041.757	2196.133	828.207
607521.475	295.639	-567.436	-29.504	-2305.210	1675.785	2037.883	2187.192	827.610
607521.483	297.129	-564.754	-36.657	-2295.077	1684.725	2046.227	2197.921	829.101
607521.491	291.169	-559.688	-34.571	-2289.116	1673.996	2023.280	2171.397	820.458
607521.499	292.957	-566.244	-24.140	-2284.348	1664.758	2043.247	2187.192	834.465
607521.507	295.043	-562.668	-18.775	-2283.454	1670.122	2020.896	2168.715	820.160
607521.526	287.294	-548.661	-41.425	-2274.215	1653.135	2022.088	2165.437	824.332
607521.534	275.075	-564.754	-50.962	-2278.686	1626.909	2028.942	2175.271	824.630
607521.542	286.102	-563.264	-17.881	-2271.533	1653.433	1992.583	2137.125	804.663
607521.550	296.533	-553.727	-0.596	-2269.447	1671.016	2007.186	2152.324	814.497
607521.558	290.871	-554.919	-2.682	-2279.580	1676.679	1983.047	2130.866	800.192
607521.566	289.679	-548.065	-0.894	-2284.348	1685.023	1975.298	2120.733	804.365
607521.574	286.102	-554.919	5.662	-2295.077	1689.494	1980.960	2126.098	804.365
607521.582	270.307	-573.397	-8.047	-2315.938	1679.659	1945.496	2086.759	784.993
607521.590	261.366	-581.145	-13.113	-2325.773	1667.440	1956.522	2095.103	789.464
607521.598	253.916	-590.086	-13.113	-2330.840	1664.460	1934.469	2076.328	775.158
607521.606	248.253	-594.258	-14.901	-2327.263	1662.374	1938.045	2079.010	784.993
607521.614	249.743	-590.384	-28.312	-2313.256	1640.320	1942.515	2088.249	780.225
607521.622	245.571	-593.066	-16.391	-2312.958	1642.108	1914.203	2058.148	766.814
607521.630	247.955	-584.125	-6.258	-2300.143	1645.088	1933.575	2078.414	780.821
607521.638	233.650	-591.874	-35.167	-2296.865	1623.630	1910.329	2054.870	765.920
607521.646	227.392	-593.662	-52.750	-2299.845	1606.047	1906.753	2045.333	768.602
607521.654	232.756	-594.556	-35.167	-2291.799	1603.365	1913.309	2053.380	768.006
607521.662	226.796	-594.556	-22.054	-2283.454	1600.385	1889.169	2024.472	760.257
607521.670	218.749	-600.517	-35.763	-2280.772	1578.927	1903.772	2036.691	768.006
607521.678	211.298	-605.583	-44.107	-2279.580	1572.669	1882.017	2017.021	751.019
607521.686	209.510	-603.795	-47.982	-2270.937	1568.794	1873.672	2005.100	753.105
607521.694	216.067	-598.133	-49.770	-2250.969	1558.363	1881.123	2016.723	754.297
607521.702	212.193	-604.987	-43.511	-2252.758	1561.046	1854.002	1991.093	742.674
607521.710	201.762	-604.093	-55.730	-2259.016	1544.356	1875.758	2006.292	755.489
607521.718	178.814	-618.100	-82.254	-2269.447	1520.812	1850.426	1981.556	738.502
607521.726	196.099	-603.497	-45.896	-2251.864	1544.058	1835.525	1963.675	732.541
607521.734	207.126	-602.603	-20.266	-2245.903	1562.536	1845.956	1976.788	733.137
607521.742	189.543	-620.782	-31.888	-2265.274	1565.218	1816.154	1948.178	721.216
607521.746	172.853	-635.087	-46.492	-2283.454	1555.085	1823.604	1953.840	726.283
607521.754	151.992	-659.823	-59.605	-2305.508	1544.058	1798.272	1927.316	705.421
607521.762	140.369	-675.917	-66.757	-2314.448	1538.694	1797.676	1926.124	714.362
607521.770	145.435	-670.850	-61.095	-2298.951	1536.608	1813.173	1943.111	722.706
607521.778	134.706	-677.109	-68.545	-2297.461	1522.601	1787.841	1914.203	713.170
607521.786	123.084	-689.030	-83.148	-2296.865	1504.123	1803.041	1926.422	717.938
607521.794	112.355	-697.374	-91.791	-2292.097	1489.818	1782.477	1908.243	703.633
607521.802	106.990	-697.970	-101.924	-2285.242	1476.705	1780.689	1906.156	712.276
607521.810	105.500	-698.566	-106.692	-2280.176	1466.870	1783.967	1912.415	710.487
607521.818	95.069	-706.613	-112.057	-2284.050	1457.334	1756.251	1882.911	696.182
607521.826	96.262	-704.527	-109.375	-2272.725	1446.605	1772.046	1898.706	706.911
607521.834	98.348	-697.970	-109.971	-2261.698	1439.154	1752.377	1880.825	691.414
607521.842	97.454	-691.712	-111.163	-2252.459	1433.790	1755.357	1877.546	697.374
607521.850	106.990	-684.857	-100.732	-2235.472	1428.127	1764.000	1888.573	702.143
607521.858	102.222	-687.540	-106.394	-2231.300	1417.697	1733.303	1857.579	690.520
607521.866	95.665	-692.606	-114.441	-2230.704	1401.901	1750.588	1867.712	697.970
607521.874	86.427	-702.441	-119.209	-2234.280	1386.106	1719.594	1837.015	673.532
607521.882	81.658	-708.103	-122.488	-2227.724	1375.675	1716.614	1832.843	680.089
607521.890	100.136	-687.838	-114.441	-2202.392	1376.271	1730.621	1852.214	686.347
607521.898	104.904	-683.069	-106.692	-2196.133	1384.020	1710.355	1832.843	678.599
607521.906	107.586	-681.877	-101.030	-2188.385	1380.742	1729.727	1852.214	689.924
607521.914	109.375	-677.705	-99.838	-2177.060	1377.165	1708.865	1834.035	678.301
607521.922	112.653	-675.619	-93.877	-2167.523	1372.993	1709.461	1828.671	685.453
607521.930	114.143	-672.936	-94.473	-2156.496	1364.946	1710.057	1831.949	678.301
607521.938	102.520	-678.897	-110.865	-2160.072	1359.284	1679.361	1801.848	662.506
607521.946	103.712	-675.917	-108.182	-2154.112	1358.092	1703.501	1820.326	677.705
607521.954	108.480	-669.956	-97.454	-2141.595	1357.794	1684.725	1805.425	667.274
607521.962	110.269	-666.976	-95.367	-2132.058	1356.602	1685.619	1801.848	679.493
607521.979	114.143	-664.294	-93.579	-2125.502	1358.986	1689.792	1808.107	674.725
607521.987	93.877	-683.367	-109.076	-2141.893	1344.681	1661.181	1776.516	660.121
607521.995	101.030	-668.764	-108.182	-2116.859	1333.952	1680.553	1794.100	674.427
607522.003	132.918	-630.021	-78.976	-2073.944	1349.151	1654.327	1772.940	654.459
607522.011	143.051	-618.696	-63.479	-2063.513	1352.429	1650.155	1766.086	656.843
607522.019	149.608	-604.391	-57.817	-2044.141	1356.304	1656.413	1772.940	657.141
607522.027	139.475	-609.755	-76.592	-2040.267	1350.343	1632.571	1748.800	650.287
607522.035	140.369	-610.650	-80.168	-2035.499	1344.085	1655.519	1766.980	667.274
607522.043	140.965	-618.696	-61.095	-2033.710	1337.528	1621.246	1737.475	642.538
607522.051	139.773	-614.524	-60.201	-2024.174	1343.191	1623.929	1736.283	649.095
607522.059	139.475	-610.352	-64.373	-2018.809	1331.866	1632.273	1747.012	648.499
607522.067	129.938	-618.398	-76.592	-2023.578	1308.024	1599.491	1715.422	633.895
607522.075	137.389	-610.054	-78.082	-2008.379	1317.859	1615.584	1731.813	643.134
607522.083	134.110	-611.246	-77.486	-2000.034	1319.349	1585.484	1707.375	621.974
607522.091	130.534	-608.861	-77.486	-1995.563	1322.329	1588.464	1704.991	632.405
607522.099	128.150	-606.477	-84.341	-1982.749	1316.965	1594.424	1711.845	633.597
607522.107	125.170	-605.285	-77.784	-1980.066	1303.852	1562.238	1679.659	616.908
607522.115	132.322	-592.172	-66.161	-1965.761	1290.441	1581.907	1697.242	628.829
607522.123	133.216	-590.086	-68.247	-1955.330	1301.169	1560.152	1681.447	614.822
607522.131	124.574	-593.960	-81.956	-1957.119	1294.911	1557.469	1673.102	618.100
607522.139	126.064	-591.576	-75.996	-1950.562	1276.731	1564.026	1677.573	615.716
607522.147	126.362	-591.576	-69.737	-1942.217	1279.116	1533.926	1648.366	602.007
607522.155	133.812	-588.000	-63.181	-1926.124	1284.182	1553.595	1667.142	614.822
607522.163	135.005	-582.933	-61.393	-1917.779	1281.202	1530.051	1647.174	599.623
607522.171	131.130	-575.483	-60.201	-1914.203	1267.791	1532.137	1645.982	607.371
607522.179	136.793	-573.099	-59.009	-1903.772	1268.685	1541.674	1659.393	611.246
607522.187	127.554	-579.059	-72.122	-1903.474	1265.705	1512.766	1626.611	599.325
607522.195	115.037	-585.318	-86.129	-1899.600	1245.439	1533.628	1641.214	607.371
607522.199	131.428	-563.860	-69.737	-1878.738	1248.121	1509.488	1619.458	593.960
607522.207	153.482	-541.210	-44.405	-1853.406	1251.698	1504.123	1610.219	595.152
607522.215	171.959	-519.753	-26.822	-1830.757	1257.062	1519.322	1631.379	603.795
607522.223	165.403	-522.435	-25.630	-1830.161	1252.294	1489.222	1600.981	590.980
607522.231	159.740	-524.521	-33.677	-1824.200	1240.075	1505.911	1614.392	597.239
607522.239	154.376	-527.501	-43.213	-1820.922	1221.597	1479.685	1590.848	581.145
607522.247	151.098	-528.395	-44.107	-1816.750	1219.213	1475.513	1581.609	585.914
607522.255	158.548	-520.051	-36.657	-1803.339	1233.518	1485.050	1594.126	588.298
607522.263	148.118	-522.435	-48.578	-1800.954	1213.253	1459.122	1568.198	576.675
607522.271	154.972	-519.753	-43.213	-1789.927	1204.610	1474.023	1584.292	585.020
607522.279	157.952	-520.945	-34.571	-1782.179	1209.378	1449.883	1558.959	568.032
607522.287	153.184	-516.772	-37.253	-1778.901	1203.120	1449.883	1550.913	575.185
607522.295	155.866	-507.236	-42.021	-1767.576	1192.391	1453.757	1558.959	572.801
607522.303	148.714	-512.600	-45.896	-1761.615	1180.172	1427.829	1529.157	562.072
607522.311	155.568	-506.938	-37.551	-1741.946	1177.788	1450.479	1550.615	575.483
607522.319	164.807	-495.911	-25.034	-1732.111	1182.556	1430.511	1538.396	566.542
607522.327	159.144	-495.911	-25.630	-1731.217	1184.046	1427.531	1531.243	568.628
607522.335	162.423	-492.334	-24.438	-1716.316	1175.106	1427.233	1533.628	560.880
607522.343	157.058	-494.122	-32.187	-1714.230	1159.906	1400.411	1505.911	551.343
607522.351	158.548	-490.248	-33.975	-1702.607	1156.032	1421.273	1528.263	563.562
607522.359	162.423	-482.500	-32.187	-1692.474	1157.522	1403.987	1510.382	550.747
607522.367	157.654	-488.758	-30.994	-1691.282	1146.495	1401.603	1502.931	559.092
607522.375	161.529	-486.672	-30.100	-1679.659	1139.939	1405.179	1510.680	558.794
607522.383	158.250	-483.990	-29.504	-1674.294	1139.343	1378.059	1480.281	548.363
607522.391	159.144	-478.029	-31.590	-1663.864	1133.978	1398.325	1499.951	561.476
607522.399	156.760	-475.347	-28.610	-1662.076	1125.336	1381.934	1482.069	551.045
607522.407	159.144	-472.665	-17.881	-1652.241	1115.203	1379.848	1475.215	555.217
607522.415	163.913	-466.704	-19.372	-1637.638	1115.203	1385.510	1485.646	556.111
607522.417	162.125	-466.406	-27.716	-1634.359	1115.799	1358.390	1454.651	543.594
607522.425	158.548	-466.704	-24.438	-1624.525	1100.898	1370.609	1464.188	547.767
607522.433	152.886	-466.406	-32.485	-1621.842	1093.149	1343.191	1443.028	533.760
607522.441	143.349	-473.857	-41.425	-1622.140	1086.295	1339.018	1436.174	538.230
607522.449	154.078	-463.724	-27.716	-1608.431	1084.805	1349.151	1447.797	540.912
607522.457	151.992	-464.022	-28.908	-1603.067	1076.162	1319.945	1416.504	524.521
607522.465	156.760	-456.870	-23.246	-1587.272	1069.903	1339.912	1437.664	533.760
607522.473	152.588	-457.466	-36.955	-1583.397	1067.221	1322.031	1423.061	523.329
607522.481	142.455	-463.128	-43.511	-1588.166	1058.281	1314.878	1411.736	523.031
607522.489	157.952	-446.737	-16.391	-1567.602	1059.175	1322.031	1417.995	523.627
607522.497	150.204	-453.591	-26.822	-1561.940	1055.896	1293.421	1387.596	512.600
607522.505	146.627	-455.379	-29.504	-1555.383	1047.552	1310.706	1406.968	524.521
607522.513	153.184	-441.968	-20.564	-1541.674	1042.485	1297.593	1393.557	516.772
607522.521	155.270	-437.796	-17.285	-1532.733	1040.101	1300.871	1387.894	525.415
607522.529	154.376	-434.220	-18.477	-1522.005	1035.631	1308.024	1397.431	525.117
607522.537	139.475	-445.843	-36.657	-1528.263	1016.259	1276.433	1365.840	509.620
607522.545	141.859	-441.670	-28.908	-1523.495	1011.193	1288.056	1378.059	515.580
607522.553	143.349	-440.180	-27.120	-1517.236	1015.961	1264.513	1357.794	499.189
607522.561	139.177	-439.584	-29.802	-1511.276	1006.424	1266.897	1352.727	504.851
607522.569	140.667	-435.710	-30.100	-1497.865	1002.550	1277.328	1363.158	508.130
607522.577	135.303	-440.478	-35.167	-1495.779	1000.762	1250.505	1337.528	497.699
607522.585	140.667	-433.028	-33.975	-1482.069	996.590	1268.685	1360.476	512.004
607522.593	137.985	-432.432	-31.590	-1472.831	990.927	1245.737	1342.595	499.487
607522.601	133.812	-430.942	-30.696	-1478.195	977.516	1245.141	1333.356	502.169
607522.609	132.024	-425.875	-40.531	-1461.804	966.787	1245.737	1333.654	495.017
607522.617	127.256	-434.816	-43.213	-1452.863	962.615	1216.233	1305.342	483.096
607522.625	137.687	-422.299	-28.014	-1441.836	970.066	1241.863	1330.078	501.275
607522.633	136.495	-418.723	-29.802	-1435.578	964.105	1217.425	1307.726	484.884
607522.637	131.428	-421.405	-33.081	-1435.578	947.118	1211.166	1296.699	485.182
607522.645	136.495	-411.868	-22.650	-1424.849	945.032	1213.551	1299.977	482.500
607522.653	130.236	-414.252	-23.544	-1418.292	946.522	1184.642	1268.685	468.194
607522.661	120.699	-424.087	-33.081	-1424.551	933.409	1198.947	1282.990	477.731
607522.669	123.680	-415.146	-39.935	-1407.862	926.852	1181.960	1269.877	467.598
607522.677	163.019	-371.337	0.894	-1358.688	945.628	1188.517	1271.963	478.327
607522.685	193.119	-336.766	30.994	-1314.282	951.290	1196.265	1282.990	477.731
607522.693	227.392	-297.725	60.201	-1273.155	959.337	1170.337	1258.850	468.194
607522.701	281.632	-238.717	106.692	-1206.100	967.383	1192.391	1282.394	481.009
607522.709	333.190	-183.284	156.760	-1146.793	970.066	1178.980	1271.069	472.069
607522.717	377.595	-130.236	194.013	-1088.381	977.516	1187.324	1274.347	485.778
607522.725	421.405	-71.526	225.008	-1011.789	975.728	1196.563	1289.248	487.566
607522.733	467.002	-23.544	268.817	-953.078	981.391	1179.278	1273.155	486.374
607522.741	509.322	27.418	312.626	-893.474	984.073	1199.543	1292.527	498.593
607522.749	523.925	53.346	318.289	-854.731	967.383	1178.980	1274.347	483.096
607522.757	531.673	63.479	305.176	-827.610	962.317	1187.026	1277.924	492.334
607522.765	538.528	73.314	295.341	-804.365	947.714	1201.332	1294.613	499.487
607522.773	551.045	96.560	315.011	-761.747	939.667	1178.980	1270.473	494.421
607522.781	552.535	90.003	327.528	-737.906	936.985	1201.630	1290.441	505.745
607522.789	532.866	72.718	300.407	-757.575	911.653	1186.430	1276.135	498.891
607522.797	513.494	73.314	258.088	-745.356	890.493	1181.066	1267.493	502.765
607522.805	496.805	52.452	245.571	-732.541	882.447	1178.682	1266.301	491.142
607522.813	473.857	30.994	238.717	-744.760	866.354	1149.774	1233.518	478.327
607522.821	459.552	6.258	225.902	-772.178	866.055	1173.019	1258.254	493.824
607522.829	431.240	-20.862	192.821	-784.695	860.989	1153.648	1245.737	481.009
607522.837	386.834	-62.287	156.164	-816.882	835.657	1145.601	1233.816	477.731
607522.845	351.965	-100.732	116.229	-853.539	813.603	1148.283	1238.883	474.751
607522.853	316.203	-137.985	83.148	-884.533	793.338	1122.653	1208.186	463.724
607522.857	288.486	-177.920	66.757	-922.978	779.331	1136.065	1218.319	468.791
607522.865	267.327	-189.841	39.637	-937.581	772.178	1117.289	1200.438	461.042
607522.873	254.214	-201.464	39.935	-933.409	778.437	1122.653	1202.822	475.347
607522.881	230.968	-225.008	17.583	-957.549	764.430	1115.203	1201.630	459.552
607522.889	199.378	-256.598	-17.583	-982.285	743.568	1080.930	1167.357	441.968
607522.897	193.119	-270.605	-22.054	-985.563	733.733	1106.262	1191.795	463.128
607522.905	190.735	-261.664	-14.007	-979.900	737.607	1096.129	1182.258	458.956
607522.913	166.595	-279.844	-45.300	-990.331	720.918	1087.785	1170.039	458.360
607522.921	167.191	-282.228	-42.617	-990.331	713.468	1092.851	1175.404	451.803
607522.929	166.595	-284.910	-29.504	-995.100	732.839	1071.692	1150.966	444.651
607522.937	160.635	-289.381	-36.061	-991.821	734.329	1078.844	1162.589	453.293
607522.945	145.733	-298.619	-55.134	-1005.530	719.428	1042.187	1130.402	425.875
607522.953	135.005	-305.772	-67.949	-1007.617	706.911	1041.591	1124.144	430.346
607522.961	133.514	-306.368	-78.380	-997.484	698.864	1047.552	1133.978	431.240
607522.969	136.197	-303.388	-53.048	-996.590	707.209	1026.988	1111.329	422.895
607522.977	144.541	-290.573	-39.637	-982.285	715.256	1055.896	1138.449	442.564
607522.985	144.243	-286.996	-43.809	-980.198	713.468	1033.545	1116.991	426.173
607522.993	132.322	-295.043	-51.856	-981.688	702.739	1029.670	1105.964	431.836
607523.001	132.620	-292.659	-53.644	-973.046	703.931	1035.035	1112.521	433.326
607523.009	134.408	-286.698	-51.856	-972.450	699.461	1010.597	1088.679	426.173
607523.017	134.408	-278.056	-55.432	-962.317	689.924	1029.074	1107.156	435.710
607523.025	127.554	-285.208	-71.526	-956.357	684.559	1006.126	1085.401	418.723
607523.033	116.825	-301.599	-70.632	-966.191	686.049	999.272	1075.566	419.021
607523.041	125.170	-284.314	-47.982	-962.317	683.665	1005.530	1083.016	418.425
607523.049	119.507	-284.314	-55.134	-960.827	674.725	982.285	1056.790	410.080
607523.057	124.872	-280.440	-53.644	-938.475	668.168	999.868	1075.268	421.405
607523.065	130.534	-271.797	-46.790	-928.342	674.427	975.132	1054.406	406.802
607523.073	115.335	-281.334	-62.287	-942.945	673.831	977.516	1050.234	413.656
607523.091	109.971	-286.996	-68.843	-941.753	655.651	976.622	1050.532	406.206
607523.099	126.958	-264.347	-53.644	-905.991	655.353	946.820	1021.922	393.391
607523.107	130.832	-257.790	-47.982	-899.136	646.114	968.873	1044.571	405.610
607523.115	141.263	-251.234	-37.849	-872.612	649.095	947.118	1025.796	391.006
607523.123	150.204	-226.796	-38.147	-841.022	646.114	952.780	1027.584	402.629
607523.131	155.270	-218.749	-35.465	-831.485	642.836	957.847	1038.909	401.735
607523.139	142.157	-239.015	-45.002	-859.797	630.915	934.601	1012.981	392.497
607523.147	135.601	-237.525	-53.942	-845.194	617.206	958.443	1027.584	407.100
607523.155	146.925	-219.941	-36.359	-811.219	619.888	939.667	1010.299	397.563
607523.163	147.820	-218.153	-30.398	-807.941	624.657	944.436	1011.491	409.782
607523.171	140.667	-224.113	-39.041	-815.690	620.484	945.032	1015.961	405.610
607523.179	129.342	-233.352	-49.472	-834.763	615.716	914.633	983.477	386.834
607523.187	132.322	-227.392	-40.829	-817.180	610.650	931.621	1002.550	397.563
607523.195	125.468	-235.736	-48.280	-810.921	603.795	912.547	984.371	386.834
607523.203	115.335	-234.842	-60.201	-821.650	589.788	908.673	972.450	389.516
607523.211	119.209	-228.584	-53.048	-815.392	591.874	910.759	976.920	387.430
607523.219	114.739	-229.776	-61.393	-812.113	592.768	885.725	950.992	376.105
607523.227	112.355	-233.054	-56.922	-814.199	578.463	902.414	964.701	382.662
607523.235	111.759	-236.928	-56.922	-818.074	574.887	881.553	951.290	367.761
607523.243	122.190	-222.325	-48.280	-800.788	589.192	885.725	956.953	377.297
607523.251	123.978	-221.431	-44.405	-787.079	584.125	892.878	967.383	378.490
607523.259	120.401	-207.424	-43.511	-788.867	576.973	870.824	939.667	369.251
607523.267	125.766	-190.437	-43.809	-762.641	578.761	885.725	952.184	377.595
607523.275	123.680	-194.013	-47.982	-754.893	574.589	865.161	934.005	363.588
607523.283	122.786	-197.887	-41.127	-762.045	576.675	869.334	936.389	372.231
607523.291	129.640	-195.503	-29.802	-753.999	581.741	873.208	945.330	370.145
607523.299	127.554	-193.715	-30.994	-751.019	582.039	852.346	919.998	362.992
607523.307	126.362	-188.053	-35.465	-746.548	576.973	876.486	941.455	377.893
607523.308	123.978	-194.013	-40.829	-744.760	570.714	852.644	921.786	363.886
607523.316	110.269	-198.781	-53.048	-757.277	558.794	849.664	914.037	366.867
607523.324	109.673	-189.841	-49.174	-750.124	551.939	851.750	914.931	364.780
607523.332	109.076	-196.993	-41.723	-743.270	547.171	825.524	886.619	354.350
607523.340	117.719	-192.225	-35.465	-738.800	549.257	852.346	911.653	369.847
607523.348	110.567	-189.245	-43.809	-741.184	546.575	823.438	887.811	351.369
607523.356	102.520	-182.986	-62.883	-731.349	537.634	817.478	878.572	352.859
607523.364	111.759	-184.178	-47.088	-716.448	529.587	825.226	887.215	351.369
607523.372	109.076	-191.331	-29.504	-724.792	537.336	796.914	857.413	336.468
607523.380	104.904	-187.755	-35.763	-723.898	534.654	813.603	871.420	348.091
607523.388	94.473	-195.205	-49.770	-725.389	519.753	782.311	842.810	326.335
607523.396	90.599	-193.119	-58.413	-733.435	513.196	783.503	838.041	328.422
607523.404	106.692	-172.257	-40.233	-709.295	526.309	798.702	853.240	334.978
607523.412	110.865	-166.595	-30.696	-691.414	531.971	766.814	825.822	320.375
607523.420	109.375	-169.277	-32.187	-686.646	526.011	787.079	845.492	332.594
607523.428	102.818	-177.622	-40.233	-693.202	519.753	759.959	820.160	312.626
607523.436	103.712	-171.065	-39.041	-695.586	513.196	763.536	817.478	320.971
607523.444	99.242	-171.065	-47.982	-696.182	492.334	780.225	837.445	329.316
607523.452	76.890	-187.755	-64.671	-710.189	481.307	751.615	811.219	315.309
607523.460	92.089	-174.940	-41.127	-701.249	509.918	767.410	821.352	323.355
607523.468	95.069	-167.787	-31.888	-701.547	528.097	738.204	793.934	303.388
607523.476	81.956	-177.920	-36.657	-722.706	527.501	733.137	785.589	309.646
607523.484	76.592	-182.688	-35.763	-734.925	530.779	739.098	789.464	307.262
607523.492	60.201	-196.695	-45.002	-759.363	534.952	694.990	749.826	281.632
607523.500	57.518	-201.464	-43.511	-771.880	541.210	720.024	769.794	299.215
607523.508	50.962	-206.530	-38.743	-785.291	551.045	690.520	741.482	279.546
607523.516	43.511	-216.067	-42.617	-800.192	551.045	686.049	734.627	281.930
607523.524	43.809	-217.855	-39.935	-803.769	553.727	698.566	743.866	284.910
607523.545	33.975	-224.710	-38.743	-813.305	556.707	657.439	704.229	261.068
607523.553	32.783	-226.200	-41.127	-816.286	553.727	689.924	729.561	281.036
607523.561	22.352	-233.948	-50.664	-823.438	542.700	665.188	706.911	261.366
607523.569	21.160	-233.948	-52.452	-821.054	538.826	664.890	705.719	267.923
607523.577	25.332	-228.584	-50.366	-808.537	533.760	676.811	718.832	273.287
607523.585	19.073	-225.306	-53.942	-807.047	531.375	640.452	683.069	252.724
607523.593	21.458	-224.710	-52.750	-805.855	528.693	670.552	707.209	275.671
607523.601	18.477	-229.180	-54.836	-804.067	523.031	638.366	683.069	255.108
607523.609	5.960	-238.419	-65.863	-807.643	510.216	638.664	675.619	259.578
607523.617	15.497	-233.650	-59.903	-796.914	510.216	660.717	694.096	270.009
607523.625	17.583	-225.604	-52.452	-791.252	510.812	628.233	667.274	256.598
607523.633	19.073	-221.729	-53.048	-785.589	507.534	663.102	698.268	278.354
607523.641	17.881	-225.604	-54.240	-780.225	502.169	630.617	669.658	252.128
607523.649	19.968	-220.239	-54.240	-772.178	500.679	631.809	668.764	259.578
607523.657	22.650	-221.431	-53.048	-768.900	497.699	650.883	691.116	271.499
607523.665	11.921	-229.776	-59.307	-775.456	484.884	622.570	662.804	257.492
607523.673	36.359	-215.769	-33.975	-756.085	511.110	644.922	680.983	271.201
607523.681	32.187	-221.729	-28.014	-763.536	519.156	606.775	650.287	244.677
607523.689	10.133	-243.485	-45.896	-791.848	503.361	598.729	636.876	241.995
607523.697	8.941	-245.869	-49.472	-787.973	497.699	606.775	644.326	240.207
607523.705	13.709	-240.505	-41.127	-777.245	501.275	566.244	609.458	215.769
607523.713	12.815	-244.975	-46.194	-777.841	497.699	599.921	638.068	240.505
607523.721	10.431	-246.763	-47.982	-779.629	496.805	571.311	611.544	221.133
607523.729	9.239	-250.638	-44.405	-779.629	496.209	573.993	608.563	230.372
607523.737	21.160	-239.611	-33.975	-765.026	499.785	594.854	630.617	241.995
607523.745	9.537	-244.081	-46.790	-768.304	491.142	557.303	595.152	217.259
607523.753	10.729	-247.061	-48.876	-761.747	483.096	585.616	619.292	238.121
607523.761	11.027	-247.359	-42.617	-759.065	487.864	558.198	596.046	220.239
607523.765	3.874	-250.041	-47.982	-762.939	482.500	558.794	588.894	225.306
607523.773	-2.980	-256.598	-55.432	-766.814	470.877	566.840	593.960	225.306
607523.781	-11.623	-265.837	-65.267	-770.986	467.002	527.799	559.688	203.550
607523.789	-2.086	-257.492	-61.691	-754.893	470.877	562.966	591.874	228.286
607523.797	6.557	-246.465	-53.644	-742.078	475.645	531.673	569.522	205.338
607523.805	2.980	-250.041	-56.028	-742.674	471.175	533.164	566.244	211.895
607523.813	5.066	-249.743	-51.856	-738.800	469.089	546.575	580.251	214.279
607523.821	8.047	-241.399	-50.068	-727.177	472.069	513.494	553.429	196.397
607523.829	11.325	-236.034	-50.366	-718.236	470.579	549.853	583.231	224.411
607523.837	11.325	-234.544	-47.982	-712.872	476.241	522.733	558.198	203.848
607523.845	13.113	-231.266	-42.319	-705.123	479.817	526.607	555.515	211.298
607523.853	19.372	-220.239	-43.511	-694.692	479.817	542.104	571.311	219.941
607523.861	12.517	-221.431	-49.770	-692.308	469.685	501.871	537.038	194.609
607523.869	9.835	-227.392	-45.598	-697.076	464.916	545.084	572.205	225.902
607523.877	5.662	-230.074	-44.703	-697.970	469.685	515.878	547.469	205.636
607523.885	27.716	-200.868	-26.524	-664.890	483.692	514.984	543.594	210.404
607523.893	39.041	-190.139	-19.372	-650.585	485.480	523.031	552.237	207.722
607523.901	25.928	-200.570	-28.610	-658.035	478.327	489.056	519.454	193.715
607523.909	22.650	-209.510	-36.359	-660.717	470.579	522.733	550.151	217.259
607523.917	22.948	-214.279	-30.696	-654.161	467.300	492.036	528.991	194.013
607523.925	20.266	-203.252	-30.100	-655.949	463.128	481.904	514.686	191.331
607523.933	18.775	-194.311	-38.445	-645.816	458.956	493.824	524.223	196.397
607523.941	5.960	-210.404	-52.154	-651.479	449.121	456.572	490.546	174.642
607523.949	14.007	-205.636	-44.405	-638.366	444.949	489.950	519.753	197.589
607523.957	22.948	-193.715	-33.081	-627.339	450.313	469.983	503.361	185.966
607523.965	17.583	-196.099	-31.590	-626.743	441.968	469.983	498.295	192.821
607523.973	16.093	-197.291	-36.359	-625.253	434.220	478.923	506.938	190.437
607523.981	8.941	-198.185	-40.233	-620.484	432.730	447.333	476.539	171.959
607524.000	8.047	-201.762	-41.425	-617.206	426.471	471.175	497.699	187.159
607524.008	9.239	-200.570	-42.617	-611.544	427.067	441.372	475.943	168.979
607524.016	7.749	-195.205	-49.770	-608.861	422.597	444.055	473.559	178.516
607524.024	14.007	-187.457	-40.233	-600.219	420.809	454.783	482.202	179.708
607524.032	10.431	-196.099	-36.061	-603.497	416.636	425.279	451.207	164.509
607524.040	9.835	-195.503	-36.955	-596.940	410.080	448.525	474.155	179.708
607524.048	15.795	-182.986	-36.955	-582.039	408.888	426.769	459.850	165.999
607524.056	7.153	-190.139	-41.127	-590.682	397.563	422.299	452.995	165.701
607524.064	10.133	-186.265	-32.783	-581.741	402.331	431.538	460.148	168.383
607524.072	8.047	-182.390	-41.723	-573.099	408.590	419.319	445.247	167.191
607524.080	19.372	-175.238	-28.908	-560.284	406.206	444.055	467.896	183.284
607524.088	21.756	-174.046	-20.564	-550.449	400.245	415.444	441.968	161.827
607524.096	4.172	-183.284	-45.896	-557.899	377.893	409.186	431.836	159.442
607524.104	7.749	-179.112	-43.511	-557.005	365.078	413.358	442.564	159.144
607524.112	11.325	-181.198	-32.485	-554.621	379.384	386.536	420.213	148.714
607524.120	17.285	-169.277	-19.073	-540.018	388.026	403.821	435.114	157.952
607524.128	26.226	-152.886	-15.497	-520.349	392.497	396.669	427.067	154.972
607524.136	20.564	-155.866	-11.027	-528.395	376.701	402.033	426.471	164.807
607524.144	17.583	-158.250	-24.140	-520.349	354.946	404.120	433.028	157.952
607524.152	11.623	-163.317	-47.088	-512.004	358.224	382.662	409.484	150.502
607524.160	28.610	-148.118	-16.093	-498.295	369.251	404.418	431.538	164.807
607524.168	29.206	-159.442	1.192	-514.090	365.973	392.497	420.213	159.442
607524.176	24.736	-156.164	-14.007	-499.189	362.694	388.622	413.954	159.740
607524.184	28.312	-143.349	-15.199	-472.069	341.833	383.854	412.762	147.820
607524.192	18.179	-150.800	-16.093	-476.837	340.939	360.608	385.940	134.408
607524.200	25.630	-136.197	-6.258	-455.976	342.131	379.086	404.716	146.329
607524.208	35.167	-128.150	-1.192	-450.015	340.044	372.827	397.265	145.137
607524.216	54.538	-113.547	20.266	-439.584	367.165	379.086	397.861	154.078
607524.219	77.784	-90.599	52.452	-420.511	376.403	376.701	405.014	146.925
607524.227	100.136	-69.141	79.572	-405.312	389.814	365.674	393.987	151.098
607524.235	130.832	-45.002	100.434	-385.046	387.728	392.497	422.597	170.469
607524.243	176.132	11.623	154.674	-327.229	408.292	358.224	387.430	138.283
607524.251	247.359	103.712	227.690	-225.604	430.942	367.463	391.006	147.820
607524.259	306.368	169.873	269.115	-146.329	426.173	378.788	406.802	151.098
607524.267	358.224	226.498	308.454	-84.937	422.001	376.403	404.716	160.635
607524.275	409.484	289.381	342.727	-2.086	406.206	394.583	430.644	168.979
607524.283	432.134	315.905	372.827	47.982	418.127	377.595	408.888	157.058
607524.291	430.644	324.547	355.542	74.506	399.947	381.172	408.888	164.509
607524.299	447.333	354.052	362.694	115.931	385.940	389.516	427.365	163.615
607524.307	431.538	340.343	331.402	132.918	365.973	377.297	412.762	160.635
607524.315	424.385	340.044	315.607	135.005	338.852	397.563	436.604	177.622
607524.323	410.378	321.567	315.011	117.421	314.713	383.854	423.193	167.489
607524.331	375.509	288.785	283.122	121.891	302.494	377.595	409.484	167.191
607524.339	360.012	288.486	252.426	141.561	299.215	390.410	428.259	172.257
607524.347	323.355	259.280	198.781	116.527	280.142	379.682	413.954	173.450
607524.355	264.049	188.351	148.416	42.617	218.153	361.502	392.795	149.608
607524.363	237.525	147.521	156.462	24.438	196.099	351.369	379.980	144.541
607524.371	198.185	113.845	114.739	-2.384	189.543	343.621	373.423	141.859
607524.379	174.344	79.274	80.466	-44.107	176.132	346.899	385.344	138.283
607524.387	150.502	60.797	66.161	-66.757	177.920	342.429	371.039	145.137
607524.395	125.170	31.888	57.817	-78.082	168.681	350.177	375.509	150.502
607524.403	95.367	-4.470	23.246	-115.335	146.329	345.707	370.145	154.078
607524.411	70.632	-35.465	-1.788	-145.733	129.938	349.581	371.933	160.038
607524.419	73.016	-34.571	15.795	-137.985	117.421	348.091	377.297	152.290
607524.427	54.240	-57.220	-0.298	-164.211	113.547	327.826	354.052	146.329
607524.435	45.598	-65.863	-6.557	-166.893	111.163	325.441	354.648	137.687
607524.439	49.472	-55.134	-1.490	-145.733	108.778	325.143	348.687	143.945
607524.447	31.888	-75.400	-21.458	-161.827	101.328	330.210	347.793	149.012
607524.455	25.928	-84.639	-20.862	-178.218	97.454	330.210	352.263	142.455
607524.463	15.199	-91.493	-28.312	-189.543	87.321	302.494	325.143	129.938
607524.471	18.775	-86.725	-24.438	-185.072	86.427	294.447	326.931	119.805
607524.479	28.908	-81.360	-11.921	-170.171	93.281	285.506	314.414	112.653
607524.487	25.928	-83.745	-13.411	-162.721	89.407	288.785	318.885	118.911
607524.495	28.312	-71.228	-21.160	-155.866	84.043	286.102	323.951	112.653
607524.503	28.610	-82.254	-10.729	-167.489	84.937	271.797	304.878	112.057
607524.511	28.908	-78.976	-4.768	-163.317	73.016	264.049	305.474	97.156
607524.519	30.696	-64.969	-4.768	-149.906	74.506	253.618	292.361	90.003
607524.527	21.756	-79.274	-19.670	-163.913	77.188	270.605	296.235	111.461
607524.535	16.093	-90.003	-31.888	-170.767	75.698	276.566	303.686	109.673
607524.543	18.775	-86.725	-16.987	-168.681	72.718	275.671	295.937	118.315
607524.551	19.968	-79.274	-11.623	-154.078	60.499	289.977	314.414	123.382
607524.559	29.802	-76.890	-1.788	-146.329	71.228	280.738	303.090	116.825
607524.567	32.485	-71.526	-4.470	-147.820	79.274	284.314	304.580	125.468
607524.575	20.862	-83.148	-17.881	-153.780	60.499	279.546	305.176	114.441
607524.583	15.199	-91.791	-19.073	-160.933	55.730	267.029	288.486	112.653
607524.591	21.458	-88.513	-13.709	-161.827	56.624	268.519	292.659	106.096
607524.599	18.775	-91.195	-13.113	-151.396	55.432	257.194	280.738	106.394
607524.607	1.788	-99.838	-36.657	-150.502	39.339	255.704	279.248	108.778
607524.615	23.246	-79.870	-12.517	-131.130	64.373	253.022	279.248	97.454
607524.623	22.650	-84.043	-11.027	-137.687	55.730	250.041	266.731	105.798
607524.631	21.756	-87.619	-14.305	-142.157	50.962	262.558	284.910	107.884
607524.639	18.179	-91.791	-18.179	-135.005	55.730	257.492	277.162	105.798
607524.647	8.941	-94.771	-31.590	-136.793	47.982	249.743	265.241	105.202
607524.655	17.583	-84.937	-25.630	-132.322	44.107	255.406	278.950	105.798
607524.657	6.855	-88.513	-38.445	-151.992	39.935	250.340	267.625	112.057
607524.665	22.352	-68.247	-21.160	-129.938	46.790	246.763	267.625	103.414
607524.673	29.206	-69.439	1.490	-126.362	60.201	239.611	257.194	101.924
607524.681	28.014	-64.969	-5.960	-114.143	59.307	248.551	260.472	112.951
607524.689	25.928	-71.228	-15.497	-110.567	58.711	245.273	265.241	104.606
607524.697	13.411	-85.831	-15.199	-137.687	54.240	226.200	241.995	99.540
607524.705	24.736	-58.711	-1.192	-122.786	61.989	236.034	257.194	100.136
607524.713	15.199	-70.035	-15.795	-133.216	50.664	222.623	243.783	93.877
607524.721	8.643	-77.486	-21.160	-144.839	39.041	223.219	238.121	100.136
607524.729	28.014	-60.201	-7.451	-140.667	58.115	232.458	252.426	104.308
607524.737	25.034	-56.028	-21.756	-134.408	62.585	221.431	236.332	106.394
607524.745	22.352	-49.174	-21.458	-118.911	56.028	222.325	242.293	94.771
607524.753	28.908	-43.809	-7.451	-118.613	63.777	215.173	233.948	93.877
607524.761	31.888	-37.849	-5.066	-112.355	67.651	213.683	233.650	98.944
607524.769	33.975	-36.359	-6.258	-114.739	74.506	210.702	234.246	86.427
607524.777	16.987	-53.346	-18.775	-134.408	52.452	194.907	210.702	86.725
607524.785	33.379	-32.783	-2.682	-115.335	58.413	208.318	228.286	89.109
607524.793	36.657	-28.014	-3.576	-109.076	70.632	202.954	220.835	89.407
607524.801	30.100	-27.120	-8.047	-117.719	68.545	197.589	212.491	89.109
607524.809	32.485	-25.332	-5.364	-110.269	66.757	194.311	212.193	77.784
607524.817	25.630	-36.657	-13.411	-112.951	63.777	183.284	198.185	81.956
607524.825	32.783	-19.670	-6.855	-105.500	60.201	183.582	208.318	73.016
607524.833	27.716	-21.458	-14.305	-104.010	52.452	167.787	188.947	62.287
607524.841	22.650	-25.034	-17.881	-105.798	53.048	168.681	187.755	64.075
607524.849	38.445	0.000	-3.874	-84.043	61.095	173.151	198.483	63.479
607524.857	35.763	-6.855	-6.557	-92.387	55.432	163.913	180.304	67.651
607524.865	43.213	-3.278	-7.451	-84.341	54.240	173.450	197.887	71.228
607524.873	52.452	7.153	10.133	-68.545	60.499	166.893	187.457	65.863
607524.876	67.949	28.908	26.226	-51.260	69.439	169.277	185.370	67.949
607524.884	94.771	55.432	46.790	-20.266	80.466	168.979	191.629	63.777
607524.892	114.143	78.678	67.651	-0.596	93.281	155.866	171.661	61.691
607524.900	166.595	137.091	123.382	43.809	111.461	160.635	185.072	58.413
607524.908	225.008	200.570	179.410	107.288	136.495	159.144	183.284	64.969
607524.916	278.354	264.645	228.584	173.450	154.376	169.277	191.331	75.400
607524.924	315.607	307.560	265.539	216.365	163.019	168.681	199.378	64.075
607524.932	354.946	351.965	300.109	253.916	190.139	151.992	181.794	61.989
607524.940	404.418	410.676	348.091	308.752	209.510	160.635	194.609	58.711
607524.948	409.186	421.107	354.052	310.838	203.550	159.144	186.265	64.671
607524.956	418.723	432.134	357.628	319.481	211.298	166.595	188.351	73.612
607524.964	435.412	455.976	378.788	343.919	215.173	164.509	189.245	66.459
607524.972	428.259	444.651	368.953	328.422	213.385	159.740	174.642	74.506
607524.980	430.644	449.121	348.985	329.912	209.212	180.602	201.762	84.341
607524.988	426.173	443.459	357.628	309.646	194.907	169.873	188.947	74.208
607524.996	433.028	458.360	391.006	319.779	213.981	169.873	184.774	76.294
607525.004	421.405	450.909	366.569	320.375	215.471	165.403	184.774	68.843
607525.012	386.238	409.186	323.653	287.890	188.649	152.886	171.959	70.632
607525.020	366.569	380.278	315.011	245.273	185.966	157.654	179.112	69.141
607525.028	336.468	348.389	281.334	210.702	177.324	147.820	160.933	66.757
607525.036	281.632	293.553	205.338	175.834	138.581	143.945	154.972	64.373
607525.044	260.472	273.883	222.027	145.137	137.091	144.243	162.423	59.605
607525.052	220.835	233.352	194.311	97.156	132.024	145.137	152.588	78.380
607525.060	176.728	182.390	144.839	52.750	95.367	143.945	153.482	64.075
607525.068	125.766	115.931	95.367	-16.987	72.122	116.229	126.064	42.021
607525.076	84.639	77.784	53.942	-48.876	57.817	111.163	120.997	42.021
607525.084	62.585	57.220	24.438	-42.915	55.730	109.673	125.170	32.783
607525.092	19.073	18.477	-16.093	-83.148	33.975	97.454	101.626	33.677
607525.112	-6.258	-5.662	-36.061	-112.057	24.736	102.818	112.355	28.908
607525.120	-29.802	-37.551	-53.942	-143.349	19.372	95.665	104.010	29.802
607525.128	-51.856	-59.009	-76.592	-162.721	8.047	91.195	99.540	29.206
607525.136	-66.757	-71.526	-93.281	-170.171	0.894	89.705	106.096	19.073
607525.144	-93.579	-96.262	-117.719	-192.225	-11.921	78.082	83.447	21.756
607525.152	-96.262	-97.156	-118.613	-192.225	-15.795	82.552	95.069	16.689
607525.160	-87.023	-93.579	-106.990	-187.159	-2.980	88.811	99.838	28.312
607525.168	-99.242	-111.461	-119.805	-203.550	-12.517	89.705	98.348	30.994
607525.176	-107.288	-109.375	-132.024	-210.702	-23.842	80.168	91.791	14.007
607525.184	-114.143	-116.229	-137.985	-214.279	-26.226	77.188	80.168	28.610
607525.192	-117.421	-113.547	-139.177	-209.808	-33.975	81.658	91.493	22.054
607525.200	-126.958	-125.170	-144.541	-225.902	-46.492	66.459	74.804	17.881
607525.208	-128.150	-130.236	-136.793	-222.027	-42.617	65.565	68.843	20.862
607525.216	-117.421	-126.958	-133.514	-207.126	-35.465	75.996	82.850	18.775
607525.224	-123.084	-126.362	-139.177	-213.087	-33.677	77.486	76.592	33.081
607525.232	-107.884	-104.010	-117.123	-195.801	-22.054	81.658	85.831	28.610
607525.240	-109.673	-103.116	-119.209	-189.841	-26.524	65.267	64.075	21.458
607525.248	-121.295	-110.865	-137.985	-192.523	-38.743	54.240	53.644	14.007
607525.256	-119.507	-111.759	-133.216	-193.119	-33.379	57.220	66.459	8.047
607525.264	-127.256	-130.534	-143.647	-213.385	-32.485	59.009	68.843	22.352
607525.272	-120.103	-127.852	-134.110	-208.318	-55.730	58.711	72.420	14.305
607525.280	-111.163	-109.673	-121.891	-182.986	-59.009	50.664	55.134	12.815
607525.288	-112.653	-99.242	-117.421	-164.509	-35.465	51.856	51.260	17.583
607525.296	-108.778	-92.685	-115.633	-159.144	-23.842	49.472	54.538	7.153
607525.304	-123.084	-109.673	-138.283	-174.344	-38.743	41.127	41.425	12.219
607525.312	-116.825	-106.394	-138.581	-171.363	-52.154	46.492	56.624	5.662
607525.320	-106.692	-95.665	-112.355	-171.065	-32.187	42.319	48.578	8.941
607525.328	-116.527	-104.904	-118.017	-175.834	-39.935	46.790	51.856	16.689
607525.331	-129.342	-120.699	-132.620	-185.966	-49.174	38.147	50.366	0.596
607525.339	-142.157	-140.369	-145.435	-213.981	-47.684	25.332	28.312	1.192
607525.347	-151.098	-141.859	-154.078	-205.338	-52.452	30.994	37.849	-3.278
607525.355	-153.780	-142.753	-155.866	-196.695	-47.982	29.504	38.743	5.364
607525.363	-174.642	-161.827	-178.516	-205.934	-64.075	29.206	36.061	5.364
607525.371	-191.033	-183.880	-193.119	-228.882	-84.043	15.497	21.756	-13.709
607525.379	-201.762	-198.781	-199.080	-244.677	-82.254	11.027	10.133	-5.662
607525.387	-180.602	-175.536	-182.390	-223.517	-66.757	32.783	42.021	7.153
607525.395	-192.225	-188.053	-194.609	-231.266	-80.764	13.113	17.881	-8.047
607525.403	-204.742	-203.252	-209.510	-237.823	-95.665	1.788	6.557	-21.458
607525.411	-187.159	-185.370	-197.589	-223.517	-97.156	-3.874	19.372	-33.379
607525.419	-197.887	-198.781	-214.279	-239.313	-106.096	-19.670	-5.662	-33.677
607525.427	-193.119	-194.907	-192.821	-224.113	-88.215	3.576	6.557	-25.630
607525.435	-185.966	-190.735	-182.986	-215.471	-80.168	0.298	0.596	-19.670
607525.443	-180.900	-192.523	-174.046	-208.914	-75.400	9.239	14.305	-5.662
607525.451	-176.132	-189.245	-174.940	-203.252	-81.956	8.643	19.670	-11.623
607525.459	-194.311	-205.636	-195.503	-221.133	-99.540	-9.239	-4.470	-14.901
607525.467	-191.927	-204.444	-191.331	-213.385	-99.540	0.000	9.239	-20.862
607525.475	-195.801	-214.279	-193.715	-219.345	-89.705	-14.305	-4.470	-26.226
607525.483	-198.483	-213.683	-198.781	-225.604	-90.599	-19.073	-12.219	-28.908
607525.491	-177.920	-195.503	-188.053	-203.252	-81.360	-9.835	-0.596	-25.332
607525.499	-193.715	-211.895	-198.185	-216.961	-87.619	-25.630	-19.670	-28.312
607525.507	-180.900	-196.397	-178.814	-199.080	-76.294	-10.729	0.000	-27.120
607525.515	-174.344	-191.331	-168.681	-189.841	-66.459	5.066	-0.298	-7.451
607525.523	-180.006	-193.417	-183.582	-189.245	-93.281	18.179	13.411	10.431
607525.531	-184.476	-199.378	-194.013	-196.099	-104.904	26.226	30.696	11.921
607525.539	-185.370	-203.848	-178.516	-210.106	-78.380	0.000	-0.596	-1.490
607525.547	-127.256	-139.773	-120.401	-154.376	-48.876	-1.192	6.557	-10.431
607525.552	-103.712	-114.143	-106.692	-132.322	-35.465	-15.497	-9.537	-12.219
607525.560	-70.930	-79.572	-72.420	-104.606	-11.921	-4.470	-1.788	1.192
607525.568	-16.093	-38.445	0.894	-66.161	25.332	-2.384	2.682	-7.153
607525.576	-2.086	-22.650	15.199	-56.326	23.842	-17.881	-22.650	-11.325
607525.584	29.206	12.219	46.194	-25.630	46.492	-9.537	-1.490	-13.113
607525.592	47.386	24.140	62.585	-19.073	51.558	-24.438	-14.603	-20.266
607525.600	87.023	68.545	102.818	13.709	64.075	-11.623	-0.894	-6.855
607525.608	139.773	122.190	162.423	61.095	95.963	-1.490	15.795	-6.557
607525.616	156.462	149.310	174.940	88.215	101.924	-12.517	-2.682	-6.855
607525.624	200.272	208.616	207.126	149.310	100.136	0.298	16.093	-7.749
607525.632	240.803	246.167	249.743	176.430	129.938	-17.583	-8.345	-17.285
607525.640	263.453	278.056	260.174	210.106	142.455	-19.372	-13.113	-15.199
607525.648	270.903	283.420	245.571	212.789	118.315	-21.160	-6.258	-26.226
607525.656	267.625	284.314	258.088	217.259	109.076	-33.081	-19.968	-25.332
607525.664	304.580	323.355	332.594	266.135	161.231	-21.458	-3.278	-26.226
607525.672	308.454	337.958	315.011	295.937	154.078	-19.670	-0.894	-23.246
607525.680	279.546	304.580	263.751	278.652	116.527	-17.285	0.298	-18.775
607525.688	258.088	285.208	260.472	243.187	101.030	-30.100	-12.815	-40.233
607525.696	241.697	268.519	249.743	227.690	90.301	-31.888	-22.948	-28.908
607525.704	221.729	251.234	212.491	213.683	82.254	-12.815	-0.894	-22.054
607525.712	185.668	208.616	170.171	175.238	70.930	-14.603	-9.537	-15.497
607525.720	148.714	158.846	153.780	143.349	42.617	-18.775	-14.305	-18.775
607525.728	108.778	120.699	98.944	98.646	-8.047	-23.544	-17.881	-29.504
607525.736	82.552	91.791	95.665	67.353	-3.576	-28.908	-28.312	-18.775
607525.744	83.745	90.003	93.281	75.400	22.352	-13.411	-6.855	-16.987
607525.752	48.876	55.432	51.558	40.829	-2.682	-37.849	-33.081	-34.869
607525.760	11.921	23.246	9.239	18.477	-44.107	-49.472	-44.703	-40.531
607525.768	13.411	22.948	-2.682	30.100	-64.373	-38.445	-25.928	-39.041
607525.771	-3.874	-3.576	-0.894	-6.557	-55.730	-40.233	-36.359	-28.610
607525.779	-8.047	-7.153	8.345	-11.623	-46.194	-29.802	-23.246	-30.398
607525.787	-25.630	-16.093	-34.869	-12.815	-68.843	-37.849	-36.657	-30.994
607525.795	-43.213	-28.014	-49.174	-13.113	-96.858	-36.061	-35.763	-26.226
607525.803	-40.531	-35.465	-25.928	-23.246	-80.466	-39.935	-34.571	-40.233
607525.811	-59.605	-58.711	-48.280	-42.319	-92.983	-51.260	-53.942	-35.167
607525.819	-63.479	-63.777	-62.883	-38.743	-101.626	-46.194	-38.147	-40.233
607525.827	-67.949	-61.989	-68.843	-34.869	-106.692	-51.558	-43.809	-42.617
607525.835	-74.804	-60.201	-75.996	-41.127	-131.428	-46.790	-43.213	-39.935
607525.843	-70.035	-60.499	-68.247	-41.127	-129.342	-53.644	-40.233	-51.856
607525.851	-80.764	-67.055	-75.698	-42.915	-120.997	-68.843	-62.585	-50.366
607525.859	-81.062	-63.777	-71.824	-38.445	-127.554	-66.161	-51.856	-56.624
607525.867	-96.262	-87.321	-98.348	-60.499	-167.489	-70.930	-62.883	-56.922
607525.875	-95.069	-81.360	-98.944	-53.346	-151.694	-61.095	-55.134	-49.174
607525.883	-77.486	-59.605	-68.545	-26.226	-124.574	-56.624	-43.213	-53.942
607525.891	-83.447	-54.836	-75.996	-19.073	-135.303	-64.671	-59.903	-47.088
607525.899	-92.685	-68.247	-97.454	-30.100	-157.058	-63.181	-50.366	-55.730
607525.907	-86.427	-67.651	-82.552	-32.783	-157.654	-64.075	-55.432	-48.578
607525.915	-89.407	-60.201	-83.745	-28.908	-168.979	-46.790	-47.684	-30.696
607525.923	-87.619	-56.624	-85.235	-24.736	-159.442	-42.617	-38.147	-36.657
607525.931	-90.003	-67.055	-80.168	-31.590	-148.416	-59.605	-61.095	-39.339
607525.939	-75.400	-51.856	-69.737	-16.987	-142.455	-68.247	-56.028	-53.942
607525.947	-75.698	-48.578	-76.890	-16.093	-158.548	-75.698	-64.373	-53.048
607525.955	-76.294	-46.194	-60.201	-13.411	-150.204	-67.055	-60.499	-47.684
607525.963	-70.333	-39.935	-70.035	-1.192	-168.383	-61.393	-48.876	-50.664
607525.971	-93.877	-57.817	-95.963	-26.226	-190.139	-71.228	-65.565	-41.127
607525.979	-49.472	-9.835	-25.034	21.458	-144.243	-73.910	-62.287	-57.817
607525.987	8.941	40.829	27.120	74.506	-115.633	-85.533	-75.996	-61.989
607525.992	59.903	101.030	70.632	122.786	-104.308	-82.552	-74.208	-58.413
607526.000	136.793	182.688	143.647	206.828	-64.671	-76.294	-57.518	-65.267
607526.008	202.656	246.763	215.769	267.327	-62.883	-68.545	-57.518	-49.472
607526.016	266.731	325.143	263.155	340.939	-42.319	-37.253	-27.716	-33.975
607526.024	320.375	376.105	308.454	388.324	-6.258	-37.253	-28.014	-26.822
607526.032	373.423	430.346	378.490	434.518	26.822	-36.359	-25.034	-21.756
607526.040	412.166	474.155	411.272	483.692	36.955	-23.842	-6.557	-17.881
607526.048	404.716	482.202	400.245	477.731	15.199	-38.147	-30.696	-19.968
607526.056	412.762	487.566	399.351	492.036	1.788	-42.915	-34.273	-39.339
607526.064	400.543	490.546	372.529	528.395	-22.948	-49.174	-46.194	-38.743
607526.072	385.344	478.923	387.430	542.700	-11.027	-43.511	-38.147	-33.677
607526.080	373.125	458.360	374.019	506.639	-2.086	-37.849	-26.822	-38.445
607526.088	313.222	384.748	303.090	430.346	-48.280	-56.028	-45.896	-39.041
607526.096	265.539	334.680	237.823	381.470	-89.109	-59.009	-42.617	-49.770
607526.104	234.842	307.560	196.099	363.886	-107.586	-59.903	-51.260	-46.194
607526.112	211.298	278.652	203.252	340.044	-122.190	-59.903	-53.048	-49.770
607526.120	190.437	245.571	196.099	301.003	-119.507	-58.413	-46.194	-57.220
607526.128	150.204	196.993	149.608	253.916	-132.620	-59.307	-56.028	-40.829
607526.136	131.130	192.821	117.123	255.406	-150.800	-47.088	-37.253	-34.273
607526.144	109.076	156.760	110.567	225.008	-160.336	-54.240	-55.134	-32.783
607526.152	91.493	136.197	92.983	213.683	-167.787	-45.598	-50.664	-26.822
607526.160	82.254	134.706	75.698	200.868	-165.403	-49.472	-45.896	-40.531
607526.168	61.095	110.865	46.194	172.853	-182.092	-60.797	-59.009	-38.147
607526.176	49.174	102.222	33.081	177.622	-224.710	-58.711	-48.876	-43.809
607526.184	56.624	95.963	65.565	177.622	-208.914	-55.432	-54.240	-29.802
607526.192	42.617	74.804	59.307	152.886	-192.821	-48.280	-52.154	-18.179
607526.200	45.598	78.678	51.558	161.827	-193.715	-42.617	-41.723	-28.610
607526.208	26.524	63.777	29.206	144.243	-212.789	-51.856	-61.393	-23.544
607526.229	21.160	66.161	25.034	151.992	-203.848	-59.009	-60.499	-41.723
607526.237	22.352	57.817	29.504	146.627	-208.616	-59.307	-61.989	-34.571
607526.245	0.894	28.908	17.583	109.076	-235.736	-62.883	-68.247	-34.571
607526.253	20.862	59.009	28.908	140.667	-218.451	-66.459	-60.797	-48.876
607526.261	17.285	56.624	31.590	132.620	-219.643	-76.294	-72.122	-40.829
607526.269	1.192	39.935	30.100	124.574	-203.848	-73.612	-67.651	-44.107
607526.277	-6.855	24.140	15.497	116.527	-204.742	-64.671	-70.333	-34.273
607526.285	-1.490	28.312	5.960	118.911	-234.246	-26.524	-44.405	0.894
607526.293	3.874	39.637	10.431	118.315	-242.889	-11.623	-32.187	5.364
607526.301	-6.855	26.226	21.458	103.712	-216.663	-9.537	-41.723	33.677
607526.309	-14.305	30.994	2.682	104.904	-272.393	-27.418	-41.425	0.298
607526.317	-11.921	21.756	9.835	91.195	-250.638	-44.703	-56.326	-10.729
607526.325	-1.788	33.677	32.187	103.712	-207.126	-25.630	-39.637	25.332
607526.333	0.894	44.405	21.756	118.017	-255.406	-36.955	-40.829	2.086
607526.341	-20.564	10.431	-3.278	84.639	-287.890	-47.684	-61.691	5.662
607526.349	-0.298	42.319	38.743	110.567	-188.947	-50.664	-57.817	-7.749
607526.357	-11.027	43.511	11.921	121.295	-237.823	-67.055	-80.168	-15.795
607526.365	-26.226	22.352	-9.835	95.665	-322.461	-75.102	-83.447	-26.226
607526.373	0.000	48.876	31.888	99.540	-308.454	-66.459	-64.373	-31.590
607526.381	11.325	69.439	53.346	130.236	-255.704	-62.585	-76.294	-11.325
607526.389	-5.066	56.028	30.696	134.706	-272.393	-66.459	-73.910	-28.610
607526.397	-3.576	47.982	40.531	127.256	-270.307	-73.612	-84.341	-36.955
607526.405	-16.689	43.809	22.054	109.673	-323.355	-72.420	-86.427	-28.312
607526.413	-12.815	41.723	25.928	107.884	-283.718	-67.353	-76.890	-28.312
607526.421	-19.670	40.531	12.219	97.752	-344.813	-69.737	-86.725	-18.179
607526.429	-11.623	59.307	30.696	111.461	-317.693	-75.102	-84.341	-33.677
607526.437	-11.623	52.452	32.783	104.010	-307.262	-73.910	-92.387	-19.968
607526.445	-36.061	26.822	16.391	83.745	-311.732	-66.161	-94.771	-10.133
607526.451	-36.061	33.975	4.470	91.493	-357.628	-66.161	-84.639	-15.795
607526.459	-15.795	60.201	17.285	113.249	-364.482	-69.737	-87.917	-16.093
607526.467	-12.815	56.624	30.398	124.574	-342.727	-69.737	-80.466	-24.438
607526.475	-13.709	54.240	20.266	125.766	-383.258	-78.678	-89.407	-31.590
607526.483	-19.073	58.115	14.603	123.084	-388.324	-78.976	-89.705	-32.485
607526.491	-23.842	51.260	9.239	119.805	-380.278	-89.109	-92.983	-46.790
607526.499	-41.425	31.292	-5.662	98.646	-400.245	-96.858	-108.778	-42.021
607526.507	-35.763	37.849	1.192	102.520	-401.437	-94.771	-96.858	-50.366
607526.515	-27.120	51.260	5.364	116.825	-410.676	-92.983	-97.156	-46.194
607526.523	-31.590	47.982	-3.874	123.382	-411.570	-80.466	-89.109	-31.888
607526.531	-30.696	45.002	3.278	121.295	-410.080	-75.996	-81.360	-37.551
607526.539	-39.041	39.637	0.298	107.586	-402.033	-75.400	-90.301	-26.524
607526.547	-42.617	50.068	-3.576	106.990	-427.961	-78.082	-90.003	-32.187
607526.555	-55.730	27.120	-23.842	94.771	-438.094	-93.877	-108.480	-43.809
607526.563	-64.075	16.391	-29.206	90.301	-438.690	-92.387	-107.586	-40.233
607526.571	-68.545	8.047	-30.398	73.612	-444.949	-96.560	-102.818	-49.472
607526.579	-75.400	8.345	-40.829	61.691	-447.631	-95.665	-110.567	-42.021
607526.587	-65.267	30.398	-37.849	92.089	-451.505	-84.937	-95.367	-39.637
607526.595	-61.393	30.398	-26.822	96.560	-445.843	-95.367	-110.269	-42.617
607526.603	-58.711	27.418	-19.372	97.454	-424.087	-101.030	-115.335	-49.174
607526.611	-58.413	22.352	-26.822	93.877	-439.882	-107.884	-109.971	-67.651
607526.619	-88.513	-4.768	-52.452	56.028	-458.956	-115.931	-125.468	-67.055
607526.627	-67.949	26.226	-33.975	78.380	-439.882	-94.771	-106.990	-51.856
607526.635	-36.955	53.048	-10.133	109.673	-417.829	-89.109	-102.818	-44.107
607526.643	-45.300	50.366	-19.073	115.037	-420.511	-81.956	-102.818	-33.677
607526.651	-35.167	61.393	-17.583	135.005	-434.816	-84.937	-103.116	-45.002
607526.659	-37.551	53.048	-28.312	124.872	-416.040	-94.771	-111.461	-44.703
607526.667	-46.194	45.896	-36.359	108.182	-431.240	-98.050	-104.606	-49.472
607526.671	-33.379	61.095	-14.901	112.355	-408.590	-94.771	-105.798	-47.982
607526.679	-30.696	67.651	-14.007	117.719	-399.053	-88.215	-103.116	-38.743
607526.687	-30.100	62.883	-15.795	119.507	-395.477	-94.473	-105.798	-51.558
607526.695	-32.783	64.671	-19.968	123.382	-383.258	-96.262	-112.951	-47.386
607526.703	-30.100	70.632	-24.438	131.726	-371.933	-92.089	-103.414	-47.684
607526.711	-40.531	55.432	-39.935	111.759	-381.470	-100.732	-112.653	-55.134
607526.719	-57.220	36.955	-42.915	72.122	-400.543	-98.944	-114.143	-47.386
607526.727	-45.002	57.220	-33.379	105.798	-380.576	-101.030	-111.163	-55.134
607526.735	-38.445	64.969	-29.504	129.342	-348.389	-100.434	-116.825	-49.770
607526.743	-39.339	64.671	-29.206	126.660	-340.044	-102.818	-113.845	-55.134
607526.751	-35.465	67.651	-26.524	121.891	-333.488	-109.076	-120.401	-62.287
607526.759	-39.637	64.671	-34.869	108.778	-326.335	-113.249	-125.170	-64.075
607526.767	-29.206	74.506	-21.756	120.401	-310.540	-127.852	-128.150	-83.148
607526.775	-25.928	81.956	-20.862	127.256	-300.705	-128.150	-133.514	-80.466
607526.783	-28.014	81.062	-18.775	123.680	-300.705	-125.170	-126.958	-83.148
607526.791	-26.524	77.784	-16.987	122.190	-286.102	-128.448	-126.064	-83.148
607526.799	-27.418	74.804	-18.179	109.673	-277.758	-143.647	-133.514	-99.838
607526.807	-19.670	95.069	-16.391	125.766	-266.433	-136.793	-122.488	-99.838
607526.815	-25.630	82.850	-22.948	132.322	-263.751	-117.719	-117.421	-75.996
607526.823	-26.524	83.447	-25.630	126.958	-256.300	-122.786	-116.825	-87.917
607526.831	-36.955	75.102	-33.379	112.951	-250.936	-123.978	-122.786	-84.639
607526.839	-45.598	53.942	-41.723	101.924	-249.147	-109.375	-118.613	-66.459
607526.847	-46.492	52.750	-55.134	93.281	-243.783	-88.215	-105.798	-49.174
607526.855	-60.499	42.617	-61.095	80.168	-242.889	-71.228	-103.712	-20.266
607526.863	-61.691	43.511	-55.730	84.043	-238.717	-79.274	-102.520	-30.100
607526.871	-63.181	28.014	-62.585	71.228	-228.584	-84.937	-102.818	-32.783
607526.879	-61.691	29.802	-63.479	75.698	-210.702	-87.321	-106.394	-33.975
607526.887	-46.194	61.393	-50.366	96.858	-200.272	-107.586	-116.825	-56.922
607526.905	-48.578	60.201	-54.240	102.818	-194.609	-108.778	-122.190	-50.068
607526.913	-48.578	56.922	-52.154	97.752	-186.563	-115.931	-119.805	-68.545
607526.921	-54.836	47.684	-59.009	95.367	-180.006	-118.315	-125.766	-70.035
607526.929	-53.346	50.068	-60.201	96.560	-166.595	-118.315	-125.170	-70.333
607526.937	-44.703	56.922	-60.201	106.990	-151.992	-124.574	-121.891	-81.658
607526.945	-45.598	46.492	-63.777	101.328	-147.223	-110.567	-117.421	-60.797
607526.953	-34.869	48.280	-41.425	95.963	-132.024	-111.759	-107.586	-66.757
607526.961	-39.339	48.578	-49.472	103.414	-140.667	-107.288	-107.884	-59.605
607526.969	-65.267	36.657	-75.102	86.427	-155.866	-109.673	-112.951	-58.413
607526.977	-38.743	56.624	-51.260	101.924	-110.865	-116.825	-115.335	-70.632
607526.985	-38.743	51.558	-50.664	84.341	-91.195	-103.712	-118.613	-50.068
607526.993	-30.696	57.220	-34.273	77.188	-65.863	-112.951	-115.037	-64.075
607527.001	-33.081	55.432	-36.955	61.691	-49.770	-99.838	-110.567	-50.366
607527.009	-45.896	42.617	-48.578	42.617	-49.770	-100.434	-116.229	-49.472
607527.017	-36.955	44.703	-42.617	39.637	-31.292	-110.269	-124.574	-65.863
607527.025	-51.856	20.862	-61.989	17.285	-28.312	-96.858	-124.574	-46.492
607527.033	-48.280	30.398	-58.711	19.372	-21.756	-100.136	-118.017	-57.518
607527.041	-47.386	30.100	-59.009	15.497	-23.842	-90.897	-115.931	-46.194
607527.049	-52.452	23.842	-63.777	16.689	-24.438	-92.387	-115.633	-47.088
607527.057	-39.041	35.167	-40.531	33.379	-3.576	-105.500	-116.825	-64.969
607527.065	-45.002	31.590	-42.915	28.312	15.497	-104.904	-124.574	-57.518
607527.073	-37.551	46.790	-36.061	41.127	32.187	-117.123	-123.978	-81.658
607527.081	-36.061	42.021	-39.041	38.445	36.061	-105.798	-120.997	-70.632
607527.089	-43.511	34.869	-47.982	34.869	39.041	-111.759	-126.958	-75.102
607527.097	-39.935	42.915	-52.154	44.703	39.041	-119.209	-123.084	-83.148
607527.105	-39.637	40.233	-45.598	33.379	37.253	-104.904	-117.421	-62.883
607527.113	-38.743	40.829	-38.445	24.736	50.068	-105.500	-110.865	-72.718
607527.121	-39.339	38.445	-48.578	30.100	64.075	-83.148	-101.030	-44.703
607527.125	-42.021	41.425	-56.326	38.743	65.565	-74.506	-95.963	-30.696
607527.133	-47.982	35.167	-62.585	34.571	60.499	-81.658	-95.963	-42.617
607527.141	-47.088	28.908	-52.452	25.928	66.161	-74.804	-101.030	-26.524
607527.149	-33.677	34.869	-36.657	30.100	87.619	-80.466	-96.560	-39.339
607527.157	-39.935	39.935	-56.922	22.948	82.254	-79.274	-100.732	-30.696
607527.165	-45.002	50.068	-62.287	45.002	85.533	-88.513	-110.865	-33.379
607527.173	-45.598	41.425	-56.624	50.068	90.301	-103.116	-117.719	-50.366
607527.181	-62.585	19.670	-72.420	22.352	81.062	-100.732	-124.276	-39.935
607527.189	-59.009	27.120	-65.863	22.054	83.447	-115.931	-122.190	-64.075
607527.197	-50.664	35.465	-56.624	23.842	96.560	-110.269	-118.911	-53.644
607527.205	-64.969	26.524	-70.632	26.226	96.560	-115.037	-129.044	-58.413
607527.213	-62.585	24.438	-78.082	30.100	90.003	-118.911	-126.660	-66.459
607527.221	-67.651	9.835	-84.043	3.576	75.996	-106.990	-124.276	-45.896
607527.229	-59.307	29.206	-76.294	17.881	90.003	-114.441	-122.190	-61.393
607527.237	-54.538	35.465	-69.737	36.955	101.328	-111.759	-128.746	-51.260
607527.245	-62.287	15.497	-70.930	16.093	101.924	-112.355	-126.362	-50.962
607527.253	-78.082	-0.596	-107.884	-12.517	87.023	-118.613	-124.872	-65.267
607527.261	-79.870	4.768	-99.540	3.576	84.937	-105.500	-126.064	-43.809
607527.269	-36.061	59.605	-40.531	80.168	114.441	-120.103	-127.256	-63.479
607527.277	-41.425	57.518	-54.836	88.811	109.971	-113.249	-127.554	-49.174
607527.285	-37.253	46.790	-62.287	90.003	105.798	-108.778	-121.891	-44.405
607527.293	-30.994	47.982	-57.220	93.579	106.990	-111.461	-113.845	-55.730
607527.301	-42.915	49.770	-73.612	83.148	90.301	-102.222	-115.931	-38.147
607527.309	-37.253	52.750	-77.486	101.626	86.725	-113.845	-118.911	-59.903
607527.317	-47.684	33.975	-87.321	100.732	77.784	-102.222	-114.739	-44.107
607527.325	-52.750	37.253	-93.579	100.732	73.016	-94.771	-106.692	-34.869
607527.333	-53.644	33.677	-88.513	92.387	79.274	-116.527	-118.613	-62.883
607527.341	-53.346	28.312	-79.274	86.725	82.552	-111.461	-121.891	-49.770
607527.345	-41.723	48.876	-74.506	101.328	90.003	-123.978	-119.507	-69.141
607527.353	-45.598	45.002	-88.215	105.798	85.533	-105.500	-111.163	-49.472
607527.361	-45.896	43.213	-70.632	96.858	88.811	-90.599	-104.308	-35.465
607527.369	-39.935	52.452	-64.671	105.202	95.367	-89.705	-96.262	-40.531
607527.377	-52.452	36.657	-77.784	95.069	95.069	-78.380	-98.646	-16.987
607527.385	-47.088	42.617	-73.016	95.367	97.156	-87.321	-101.328	-29.802
607527.393	-57.220	31.590	-92.089	80.168	92.089	-72.718	-99.838	-7.749
607527.401	-72.122	8.345	-112.057	61.393	78.082	-44.703	-86.725	26.226
607527.409	-72.718	-2.980	-109.076	58.115	73.612	-20.564	-70.930	47.982
607527.417	-81.360	-5.662	-118.613	47.684	69.141	3.576	-64.969	87.619
607527.425	-80.168	-0.894	-118.017	52.750	74.208	-8.643	-66.161	72.718
607527.433	-83.745	-8.047	-129.044	47.982	72.718	-10.729	-69.439	84.043
607527.441	-81.062	1.490	-130.534	55.730	66.757	-12.815	-69.439	87.321
607527.449	-67.651	9.239	-93.579	65.863	80.466	-25.034	-70.632	70.333
607527.457	-73.612	6.258	-101.030	61.095	80.466	-22.352	-73.016	82.254
607527.465	-60.499	19.073	-93.877	70.930	89.407	-39.339	-77.784	59.307
607527.473	-59.605	24.438	-96.262	80.466	82.850	-37.551	-78.380	61.989
607527.481	-58.711	24.736	-95.069	78.976	87.023	-40.233	-75.102	62.585
607527.489	-37.849	44.405	-70.930	102.222	102.520	-52.750	-75.102	44.703
607527.497	-48.876	28.908	-75.400	90.301	97.156	-60.797	-91.791	41.425
607527.505	-51.558	26.226	-78.082	76.294	95.963	-88.513	-101.626	3.278
607527.513	-44.405	49.770	-73.612	95.665	100.732	-95.665	-111.461	2.980
607527.521	-50.664	45.300	-79.870	108.480	94.175	-98.944	-115.931	-1.490
607527.529	-48.280	53.942	-83.148	100.434	91.195	-112.653	-117.719	-24.438
607527.537	-45.002	46.194	-79.572	95.963	96.560	-103.712	-117.123	-8.643
607527.545	-31.292	47.684	-52.750	104.010	110.567	-110.865	-108.480	-27.418
607527.553	-32.187	53.644	-53.644	102.520	112.951	-115.335	-113.249	-31.888
607527.561	-49.174	44.405	-78.082	104.308	104.308	-129.342	-126.660	-45.002
607527.565	-47.386	44.107	-73.910	100.732	103.116	-148.416	-135.005	-70.930
607527.573	-56.922	29.802	-77.188	85.831	87.321	-145.733	-142.455	-63.181
607527.581	-56.028	36.061	-75.698	86.129	92.089	-152.588	-137.687	-81.658
607527.589	-50.962	46.194	-73.016	102.520	96.858	-146.925	-136.495	-77.188
607527.597	-52.452	44.405	-66.161	104.010	94.473	-147.223	-137.985	-80.764
607527.605	-45.896	47.684	-66.161	103.414	103.414	-154.972	-141.263	-97.454
607527.613	-55.432	30.100	-77.486	92.685	101.328	-140.965	-138.879	-79.274
607527.621	-53.644	32.187	-65.267	95.963	107.288	-149.012	-133.812	-98.944
607527.629	-56.624	39.935	-73.016	92.685	99.838	-150.800	-143.349	-95.963
607527.637	-64.671	30.696	-86.427	85.235	88.215	-157.356	-149.012	-100.136
607527.645	-55.730	22.352	-68.843	86.129	100.136	-163.317	-144.839	-112.951
607527.653	-50.664	46.492	-62.585	98.050	97.156	-151.396	-144.839	-93.281
607527.661	-48.578	50.962	-66.161	111.461	91.195	-161.827	-143.051	-115.037
607527.669	-50.068	40.531	-75.400	99.242	84.043	-154.376	-140.965	-105.798
607527.677	-46.790	33.677	-60.797	97.454	94.175	-164.807	-149.012	-117.421
607527.685	-36.955	42.319	-51.558	111.759	102.520	-188.649	-159.144	-154.376
607527.693	-34.273	53.346	-45.300	121.593	103.116	-199.378	-173.748	-164.807
607527.701	-16.689	77.486	-27.120	147.820	117.123	-241.101	-186.265	-221.431
607527.709	-25.928	69.439	-30.696	136.197	104.308	-272.393	-199.974	-262.558
607527.717	6.855	108.778	16.093	173.450	144.243	-342.727	-240.207	-349.879
607527.725	32.485	129.938	39.637	188.053	168.383	-340.641	-235.140	-362.992
607527.733	4.470	88.811	-1.192	127.852	149.608	-216.663	-177.920	-226.796
607527.741	-9.537	58.413	-22.054	83.745	148.714	-132.620	-135.005	-138.879
607527.749	-29.504	26.524	-36.359	44.405	146.031	-94.771	-123.978	-84.341
607527.757	-50.068	12.517	-56.922	24.438	130.236	-77.784	-118.911	-59.605
607527.765	-46.194	19.372	-54.538	15.795	134.110	-84.341	-116.527	-65.267
607527.773	-55.730	16.391	-53.346	0.000	127.554	-76.294	-122.786	-42.617
607527.781	-52.452	13.411	-47.386	9.239	125.468	-94.473	-128.448	-62.883
607527.784	-46.790	13.113	-51.558	6.258	135.601	-85.235	-119.507	-43.511
607527.792	-58.413	1.788	-53.346	4.470	140.071	-87.321	-123.084	-40.233
607527.800	-54.240	-0.596	-53.048	12.517	145.435	-98.944	-127.256	-61.691
607527.808	-68.545	-6.855	-73.314	0.000	134.706	-87.917	-130.236	-39.041
607527.816	-54.240	11.623	-56.028	12.517	137.091	-101.626	-127.256	-58.115
607527.824	-51.856	9.239	-45.300	5.364	133.812	-93.877	-126.660	-42.319
607527.832	-59.307	3.278	-58.711	-0.894	129.640	-95.367	-130.534	-42.021
607527.840	-54.836	9.835	-57.817	15.795	136.197	-108.182	-129.938	-60.797
607527.848	-69.439	-8.941	-70.930	-0.894	129.342	-98.944	-130.832	-39.637
607527.856	-64.075	-1.788	-67.949	0.894	134.408	-116.229	-134.408	-64.373
607527.864	-59.903	-1.192	-56.624	-2.384	133.812	-111.461	-137.091	-56.922
607527.872	-59.009	-5.662	-49.770	-2.682	134.706	-107.586	-133.216	-52.452
607527.880	-52.750	3.874	-55.730	2.384	143.349	-112.355	-128.150	-61.095
607527.888	-60.797	3.874	-70.333	-2.086	133.216	-93.877	-126.362	-34.571
607527.896	-49.770	14.901	-49.472	16.093	140.071	-101.924	-124.872	-53.346
607527.904	-53.644	3.278	-42.319	7.749	141.263	-95.665	-126.958	-38.743
607527.912	-63.777	-3.278	-56.028	-6.855	141.561	-92.089	-124.872	-34.273
607527.920	-62.585	6.855	-63.777	-0.596	130.832	-98.348	-124.872	-48.280
607527.928	-59.605	8.643	-59.605	1.788	125.766	-89.407	-129.044	-26.226
607527.936	-38.147	25.332	-37.849	25.332	151.992	-98.050	-121.593	-44.107
607527.944	-48.876	6.557	-46.194	3.576	143.051	-94.473	-123.084	-32.485
607527.952	-58.711	-2.980	-57.518	-0.894	133.514	-99.540	-129.640	-38.147
607527.960	-60.499	-2.086	-65.267	6.258	126.660	-109.673	-129.342	-55.432
607527.968	-64.373	-0.596	-62.287	-2.682	115.633	-99.540	-134.408	-31.888
607527.976	-52.452	15.199	-46.492	11.921	126.660	-112.653	-137.985	-53.346
607527.984	-60.499	2.384	-63.777	2.086	123.382	-105.202	-137.687	-41.127
607527.992	-69.439	-6.557	-67.353	-13.709	106.096	-107.884	-140.369	-45.002
607528.000	-59.307	-1.192	-57.518	-5.662	107.288	-125.170	-147.521	-68.545
607528.023	-67.949	-4.470	-73.314	-10.729	102.818	-116.229	-146.925	-45.300
607528.031	-65.863	2.980	-75.698	-2.086	101.328	-125.766	-141.561	-64.969
607528.039	-61.095	2.980	-55.432	-10.431	95.367	-119.805	-142.455	-56.326
607528.047	-51.558	14.901	-39.041	9.537	114.441	-118.315	-143.647	-54.836
607528.055	-52.154	16.391	-48.280	19.670	112.057	-124.276	-140.667	-67.949
607528.063	-72.718	-5.662	-76.294	-4.172	96.262	-114.143	-144.541	-43.809
607528.071	-75.102	-8.643	-78.678	-7.451	91.493	-123.084	-143.349	-58.413
607528.079	-78.678	-12.815	-90.301	-20.564	77.784	-91.195	-130.534	-21.160
607528.087	-82.552	-21.160	-92.685	-30.994	62.883	-51.558	-110.567	20.564
607528.095	-84.639	-35.167	-86.725	-32.485	64.075	-31.292	-95.367	38.743
607528.103	-92.685	-43.213	-97.752	-46.790	63.181	-15.497	-91.493	73.612
607528.111	-87.321	-21.458	-103.116	-32.187	70.333	-32.485	-94.473	53.048
607528.119	-80.466	-18.775	-88.513	-19.968	73.016	-37.849	-100.732	55.134
607528.127	-75.996	-18.477	-73.314	-20.862	78.380	-48.578	-106.394	48.876
607528.135	-73.016	-7.749	-75.102	-17.285	77.486	-69.439	-112.057	23.246
607528.143	-84.937	-19.372	-89.705	-23.544	60.499	-69.737	-118.613	28.908
607528.151	-72.420	-9.835	-76.294	-8.941	62.585	-86.129	-118.315	0.000
607528.159	-59.009	2.980	-63.479	0.000	82.850	-78.976	-112.653	9.239
607528.167	-56.624	6.258	-50.366	-3.874	92.685	-85.533	-115.931	2.086
607528.175	-49.770	15.795	-49.472	9.537	90.301	-107.288	-121.593	-27.120
607528.183	-63.181	6.557	-65.863	5.960	73.612	-107.586	-132.620	-20.564
607528.191	-52.750	18.477	-49.472	17.583	77.188	-120.103	-132.918	-44.405
607528.199	-41.425	29.802	-30.696	25.332	90.301	-110.865	-127.852	-32.783
607528.207	-43.511	28.312	-36.061	22.650	88.811	-112.057	-130.236	-39.935
607528.215	-47.088	22.948	-44.703	21.458	85.235	-123.978	-133.514	-60.499
607528.223	-53.942	6.258	-45.598	4.470	71.824	-109.673	-130.236	-37.849
607528.231	-44.703	18.775	-37.253	9.835	72.122	-120.699	-126.958	-61.095
607528.239	-57.817	25.928	-53.346	15.199	50.366	-117.421	-128.746	-51.260
607528.244	-62.287	21.458	-53.644	10.729	61.393	-118.315	-130.832	-58.413
607528.252	-40.233	32.485	-22.650	20.862	95.367	-138.581	-141.263	-88.513
607528.260	-69.141	1.788	-50.664	-11.623	76.592	-129.938	-146.627	-71.228
607528.268	-63.777	9.239	-46.492	-5.960	77.486	-146.925	-148.118	-98.348
607528.276	-64.373	3.576	-51.558	-11.325	73.612	-145.435	-146.925	-93.579
607528.284	-74.804	-2.086	-59.903	-19.372	66.161	-149.608	-149.608	-98.646
607528.292	-70.632	2.980	-52.750	-15.199	68.247	-164.211	-153.184	-122.786
607528.300	-81.956	-11.921	-61.989	-28.014	59.307	-163.913	-160.635	-116.229
607528.308	-70.632	2.086	-55.432	-13.113	68.545	-183.284	-158.548	-153.780
607528.316	-69.439	2.384	-51.856	-17.285	64.969	-173.748	-158.250	-142.157
607528.324	-83.148	-12.517	-68.545	-36.657	51.260	-124.872	-136.495	-87.619
607528.332	-84.937	-22.054	-73.910	-32.783	48.578	-119.805	-130.534	-84.341
607528.340	-95.963	-36.657	-78.678	-44.107	40.531	-104.010	-136.197	-52.750
607528.348	-98.646	-30.696	-86.725	-41.425	36.359	-103.712	-132.918	-59.009
607528.356	-103.712	-41.723	-97.156	-48.280	28.908	-95.367	-130.534	-43.213
607528.364	-114.143	-52.750	-105.202	-56.326	18.179	-98.646	-134.408	-42.915
607528.372	-114.143	-49.770	-104.010	-58.115	8.047	-110.567	-138.879	-61.691
607528.380	-123.680	-62.883	-109.076	-71.228	8.345	-98.646	-134.408	-35.465
607528.388	-116.527	-51.260	-108.182	-58.413	15.795	-105.202	-128.746	-49.472
607528.396	-118.315	-54.240	-113.249	-60.499	2.682	-99.838	-130.832	-37.551
607528.404	-115.335	-62.883	-104.904	-64.075	2.682	-104.904	-138.879	-39.935
607528.412	-110.269	-60.201	-100.136	-49.770	8.643	-113.249	-136.197	-53.644
607528.420	-122.190	-68.843	-110.865	-62.585	-0.298	-102.222	-137.687	-34.571
607528.428	-115.037	-56.326	-92.089	-50.664	-0.298	-117.123	-143.051	-61.691
607528.436	-109.673	-57.220	-93.281	-53.346	6.855	-110.865	-140.667	-48.578
607528.444	-113.845	-64.969	-97.454	-52.154	1.490	-107.884	-139.177	-43.213
607528.452	-111.759	-65.267	-101.030	-50.068	-1.192	-111.163	-135.899	-56.028
607528.460	-120.401	-73.910	-113.249	-61.393	-9.537	-94.473	-133.216	-29.802
607528.464	-109.971	-63.181	-100.136	-47.386	3.874	-105.500	-130.832	-49.770
607528.472	-104.606	-59.605	-86.725	-50.664	11.623	-94.473	-124.872	-31.590
607528.480	-109.076	-65.565	-90.003	-57.220	4.470	-95.367	-126.362	-33.975
607528.488	-106.394	-65.863	-92.685	-50.664	4.768	-108.182	-130.832	-52.750
607528.496	-114.441	-79.274	-103.712	-62.287	5.066	-93.281	-128.150	-26.524
607528.504	-99.242	-61.691	-86.725	-48.578	17.583	-101.328	-123.680	-44.703
607528.512	-102.818	-67.353	-87.619	-48.876	19.968	-92.685	-122.190	-32.485
607528.520	-108.778	-73.314	-93.877	-56.326	14.305	-93.281	-123.084	-31.292
607528.528	-89.407	-56.624	-82.552	-45.002	18.477	-99.838	-116.825	-42.617
607528.536	-94.473	-56.922	-92.387	-48.280	15.795	-89.109	-118.613	-22.054
607528.544	-87.023	-49.472	-78.678	-37.849	28.610	-102.520	-119.209	-43.511
607528.552	-90.301	-61.095	-73.612	-45.896	25.332	-101.626	-126.064	-36.061
607528.560	-92.387	-62.287	-76.890	-45.598	23.544	-101.030	-128.448	-36.657
607528.568	-77.486	-44.405	-73.612	-30.696	29.504	-105.798	-122.488	-46.492
607528.576	-83.745	-56.028	-73.612	-46.492	28.610	-87.023	-117.421	-18.477
607528.584	-84.341	-51.260	-68.247	-41.425	36.657	-94.473	-116.229	-37.253
607528.592	-78.082	-45.300	-71.228	-29.206	38.445	-88.513	-117.421	-23.246
607528.600	-77.784	-46.492	-73.612	-31.590	34.869	-82.552	-114.143	-15.795
607528.608	-78.380	-53.644	-69.439	-38.147	33.975	-87.619	-116.229	-27.418
607528.616	-95.665	-71.228	-82.850	-55.730	21.458	-72.420	-116.825	1.192
607528.624	-93.579	-75.698	-83.148	-63.181	23.544	-73.910	-110.567	-7.153
607528.632	-93.877	-72.420	-89.705	-68.247	23.246	-59.605	-104.904	17.285
607528.640	-99.540	-70.930	-93.877	-65.267	18.179	-48.578	-99.242	31.590
607528.648	-95.665	-71.228	-92.983	-54.836	18.775	-37.253	-90.003	39.041
607528.656	-105.202	-80.764	-100.434	-73.612	9.835	-14.901	-85.533	78.380
607528.664	-101.924	-77.486	-95.963	-68.247	10.729	-26.226	-84.639	65.267
607528.672	-98.646	-80.168	-99.540	-63.181	10.133	-16.689	-80.764	81.062
607528.680	-103.116	-82.254	-103.116	-66.459	4.768	-15.199	-82.254	84.043
607528.700	-98.646	-75.698	-102.222	-65.863	2.086	-31.292	-85.831	64.671
607528.708	-106.990	-83.148	-113.845	-74.208	-4.768	-30.696	-90.599	76.592
607528.716	-103.712	-72.718	-110.567	-66.161	3.576	-50.366	-97.454	46.194
607528.724	-102.520	-71.824	-106.990	-68.545	5.960	-63.479	-106.394	41.127
607528.732	-96.858	-70.930	-95.367	-62.287	2.980	-67.651	-109.076	35.763
607528.740	-76.890	-51.260	-72.122	-39.041	10.729	-78.976	-107.884	14.603
607528.748	-79.572	-54.538	-71.824	-41.127	13.411	-85.831	-116.527	12.815
607528.756	-73.910	-45.896	-68.843	-39.637	17.881	-106.692	-121.593	-21.458
607528.764	-71.526	-44.107	-64.075	-37.551	19.073	-115.633	-130.236	-28.312
607528.772	-64.373	-32.485	-56.326	-32.783	25.630	-117.719	-130.832	-35.465
607528.780	-56.028	-23.246	-51.558	-21.160	25.034	-129.640	-132.918	-58.413
607528.788	-59.307	-28.014	-59.605	-21.756	27.716	-126.958	-135.005	-50.962
607528.796	-53.942	-20.862	-50.962	-14.603	32.485	-143.349	-135.601	-80.168
607528.804	-48.876	-20.266	-38.445	-15.199	31.888	-147.820	-138.283	-82.254
607528.812	-44.107	-11.027	-29.504	-5.066	34.273	-143.647	-135.005	-78.678
607528.820	-40.233	-9.239	-27.418	1.788	39.339	-151.992	-137.687	-98.646
607528.828	-43.809	-11.623	-32.783	0.000	33.379	-148.118	-141.561	-90.301
607528.836	-42.319	-3.576	-32.187	5.960	33.379	-166.595	-145.733	-122.786
607528.844	-33.081	-1.490	-24.140	10.133	42.021	-170.767	-147.223	-127.256
607528.852	-31.888	5.364	-24.438	17.881	41.127	-177.324	-151.396	-137.985
607528.860	-19.073	29.206	0.000	36.955	44.405	-205.338	-161.529	-176.728
607528.868	-16.391	26.822	8.047	37.849	51.856	-210.702	-167.489	-181.794
607528.876	-11.325	34.273	11.027	46.492	61.989	-217.259	-165.105	-203.550
607528.884	-1.192	40.233	18.477	53.942	70.632	-211.000	-166.893	-196.099
607528.892	15.199	55.730	37.253	60.201	71.824	-173.450	-149.906	-162.423
607528.900	49.770	87.023	67.949	90.897	84.937	-121.593	-113.249	-115.335
607528.908	94.771	123.680	113.547	121.891	102.222	-75.102	-92.685	-51.558
607528.916	160.038	191.629	183.582	174.940	128.746	-78.678	-87.917	-57.220
607528.920	211.298	244.677	237.823	225.902	147.521	-68.247	-89.705	-36.657
607528.928	273.883	326.931	292.063	303.686	166.595	-60.499	-84.639	-25.034
607528.936	334.978	392.497	337.064	372.529	180.900	-70.930	-81.956	-37.849
607528.944	364.482	427.663	363.290	410.676	191.927	-55.134	-77.188	-12.517
607528.952	396.967	469.089	400.841	459.850	203.550	-57.817	-68.545	-25.630
607528.960	409.782	479.519	406.802	480.413	196.993	-49.472	-63.777	-10.729
607528.968	405.610	477.135	392.795	484.884	187.457	-45.896	-64.373	-5.066
607528.976	395.775	463.724	378.788	474.453	172.853	-57.817	-65.863	-22.948
607528.984	367.761	444.055	334.978	458.062	136.197	-52.452	-74.208	-6.557
607528.992	376.701	465.214	347.197	481.904	139.177	-57.817	-70.035	-17.881
607529.000	376.105	445.545	357.330	475.943	149.012	-44.703	-61.095	-1.192
607529.008	347.793	413.954	336.468	448.227	141.859	-43.213	-66.757	-0.894
607529.016	327.229	396.967	303.984	428.855	136.495	-49.472	-63.181	-11.623
607529.024	297.725	373.125	282.228	410.378	118.911	-46.194	-69.737	3.874
607529.032	269.115	335.574	264.347	377.893	110.865	-53.942	-59.605	-13.113
607529.040	216.663	272.393	193.715	308.752	70.035	-61.095	-71.228	-9.835
607529.048	191.331	240.803	196.397	272.691	74.208	-63.777	-87.321	-11.325
607529.056	172.257	213.087	181.496	234.246	84.639	-70.632	-88.811	-26.226
607529.064	133.812	174.046	125.170	201.464	48.280	-63.777	-93.877	-11.623
607529.072	118.315	143.647	133.514	192.523	36.955	-63.777	-81.062	-17.285
607529.080	89.109	101.924	112.355	151.098	30.696	-60.201	-79.274	-6.557
607529.088	47.684	80.168	64.671	129.938	-2.086	-76.592	-102.520	-23.544
607529.096	34.273	68.843	45.896	128.746	-8.345	-88.513	-106.394	-39.935
607529.104	10.133	34.869	19.073	97.752	-15.199	-72.718	-98.944	-12.815
607529.112	3.278	21.160	22.054	87.917	-14.305	-75.400	-94.473	-26.524
607529.120	-15.199	-4.172	-6.258	64.373	-27.120	-76.294	-98.348	-20.266
607529.128	-34.571	-21.756	-13.709	39.339	-42.319	-76.294	-96.560	-18.477
607529.136	-25.034	-18.477	13.411	61.095	-24.736	-74.208	-89.705	-26.524
607529.141	-42.915	-36.061	-6.557	52.154	-39.041	-64.075	-92.983	-5.960
607529.149	-56.326	-45.300	-27.418	34.571	-55.730	-70.333	-88.811	-17.583
607529.157	-66.459	-63.181	-38.147	24.140	-53.644	-67.353	-86.427	-8.345
607529.165	-70.632	-68.545	-33.975	21.160	-53.942	-71.526	-90.003	-10.133
607529.173	-70.035	-64.969	-41.425	18.477	-59.903	-86.725	-99.242	-30.100
607529.181	-84.341	-82.850	-53.644	5.960	-72.420	-76.890	-100.136	-12.219
607529.189	-78.082	-87.023	-44.703	9.835	-70.930	-76.592	-91.195	-21.756
607529.197	-78.082	-90.599	-44.405	4.470	-72.718	-67.651	-86.129	-10.133
607529.205	-89.407	-101.328	-67.353	1.788	-87.023	-70.632	-87.619	-14.901
607529.213	-80.466	-92.983	-59.605	7.451	-78.380	-81.658	-86.427	-30.696
607529.221	-86.725	-99.838	-52.750	1.192	-80.168	-73.612	-90.897	-13.113
607529.229	-79.274	-85.533	-53.048	16.391	-73.612	-79.870	-92.983	-26.822
607529.237	-77.486	-91.493	-36.955	11.027	-74.208	-73.612	-95.069	-14.901
607529.245	-81.062	-105.202	-30.398	8.345	-67.949	-70.632	-94.175	-11.921
607529.253	-74.506	-104.010	-34.869	9.537	-63.777	-77.486	-87.917	-24.438
607529.261	-80.764	-102.818	-47.386	-0.298	-61.393	-69.141	-87.619	-8.345
607529.269	-84.639	-100.434	-56.922	10.133	-63.181	-80.168	-86.427	-28.312
607529.277	-83.447	-103.414	-54.836	11.623	-60.797	-68.545	-78.678	-12.219
607529.285	-98.348	-119.209	-64.075	-12.815	-78.976	-78.976	-99.242	-22.054
607529.293	-80.466	-99.540	-45.300	-5.364	-65.863	-92.983	-110.269	-40.233
607529.301	-84.043	-105.202	-46.194	9.239	-57.518	-78.976	-105.202	-19.073
607529.309	-87.321	-115.633	-43.809	5.364	-54.538	-89.109	-102.222	-39.637
607529.317	-89.705	-122.488	-55.432	-8.047	-52.452	-79.572	-95.367	-26.524
607529.325	-95.069	-120.699	-66.757	-13.113	-60.499	-76.592	-94.473	-19.968
607529.333	-84.937	-109.375	-46.790	7.749	-57.817	-87.917	-98.348	-36.657
607529.341	-99.242	-126.958	-58.413	-7.451	-62.585	-80.168	-102.818	-20.266
607529.349	-103.116	-131.428	-63.181	-21.756	-62.585	-82.850	-93.579	-32.187
607529.357	-111.163	-137.091	-70.632	-32.783	-64.075	-73.910	-92.685	-20.564
607529.375	-71.526	-90.599	-32.187	28.908	-35.763	-72.420	-91.791	-19.670
607529.383	-41.425	-67.353	-13.411	59.605	-22.352	-66.757	-74.804	-20.862
607529.391	-30.398	-48.578	-15.199	77.188	-30.696	-46.194	-67.651	9.239
607529.399	-25.034	-48.280	-13.411	85.235	-37.253	-57.220	-67.949	-7.451
607529.407	-23.544	-49.472	-6.855	78.082	-47.088	-55.134	-73.016	-2.980
607529.415	-23.842	-41.425	-0.298	93.579	-51.856	-53.048	-71.526	-1.490
607529.423	-24.438	-39.339	-5.662	110.567	-54.538	-61.095	-66.459	-15.199
607529.431	-48.280	-71.824	-27.120	76.890	-65.565	-49.472	-67.949	3.278
607529.439	-42.617	-60.201	-23.842	78.082	-52.452	-57.518	-67.055	-11.921
607529.447	-46.194	-72.122	-23.842	67.055	-50.962	-56.326	-70.930	-2.980
607529.455	-58.413	-81.658	-33.379	56.028	-56.922	-57.220	-72.718	-4.172
607529.463	-52.750	-70.930	-33.677	64.075	-57.220	-63.777	-70.333	-17.881
607529.471	-67.949	-86.427	-54.240	52.452	-65.863	-47.684	-68.545	7.749
607529.479	-58.711	-76.592	-35.763	47.982	-56.028	-52.154	-61.095	-5.364
607529.487	-64.075	-81.658	-41.425	49.770	-66.757	-56.922	-71.526	-3.576
607529.495	-74.506	-90.003	-51.856	50.068	-73.910	-61.989	-79.572	-8.047
607529.503	-66.757	-81.956	-44.107	44.107	-62.883	-68.247	-74.804	-20.564
607529.511	-67.949	-78.380	-52.154	44.405	-64.671	-55.730	-67.353	-1.490
607529.519	-55.730	-74.506	-37.849	62.287	-61.393	-64.075	-65.863	-19.372
607529.527	-54.240	-73.016	-30.696	52.154	-60.201	-58.413	-70.333	-11.921
607529.535	-60.201	-65.267	-35.465	49.770	-64.969	-60.201	-70.333	-12.219
607529.543	-52.452	-53.644	-35.167	61.095	-63.479	-72.718	-71.824	-28.610
607529.551	-55.730	-67.651	-35.167	58.711	-67.353	-60.797	-70.930	-11.325
607529.559	-50.366	-56.624	-25.034	68.545	-56.326	-71.228	-70.930	-25.630
607529.567	-47.088	-55.432	-28.610	69.737	-53.644	-61.989	-68.545	-11.325
607529.575	-51.558	-59.903	-33.677	65.565	-59.605	-55.432	-66.459	-5.066
607529.583	-60.797	-67.949	-45.300	48.876	-62.883	-58.711	-63.181	-16.093
607529.591	-54.836	-59.605	-35.465	62.883	-57.220	-50.664	-63.181	-0.596
607529.595	-27.120	-21.756	-9.537	100.732	-44.405	-61.393	-59.307	-19.073
607529.603	-38.445	-36.955	-22.054	85.831	-60.797	-55.134	-59.605	-5.960
607529.611	-39.637	-39.041	-25.928	81.956	-65.863	-51.260	-59.009	0.298
607529.619	-31.888	-30.994	-23.544	87.321	-58.711	-55.432	-55.134	-10.729
607529.627	-40.233	-36.657	-32.783	81.360	-63.181	-45.896	-52.154	7.153
607529.635	-42.915	-39.041	-36.061	87.917	-66.161	-56.624	-53.644	-16.093
607529.643	-38.743	-41.425	-30.100	79.274	-70.333	-51.260	-56.028	-5.662
607529.651	-39.339	-39.041	-29.206	79.274	-73.016	-48.280	-57.220	-2.086
607529.659	-36.955	-31.292	-29.206	92.983	-67.651	-57.220	-56.624	-16.391
607529.667	-45.598	-43.809	-36.359	75.996	-77.188	-45.598	-55.730	5.662
607529.675	-38.147	-33.677	-22.352	75.400	-63.181	-55.432	-56.028	-14.305
607529.683	-40.233	-30.994	-24.736	76.592	-65.267	-55.730	-62.585	-10.431
607529.691	-45.896	-35.167	-35.763	81.360	-73.016	-57.220	-65.863	-11.027
607529.699	-42.617	-37.253	-39.339	83.745	-69.737	-62.883	-60.797	-19.968
607529.707	-46.194	-35.167	-34.869	79.572	-71.824	-47.982	-59.009	3.576
607529.715	-38.147	-25.332	-24.438	88.215	-67.949	-55.134	-57.518	-15.199
607529.723	-36.657	-36.657	-28.312	81.360	-63.479	-49.770	-55.432	-6.855
607529.731	-29.206	-23.842	-21.160	81.658	-57.220	-44.107	-46.492	0.596
607529.739	-14.901	-4.470	-7.153	95.069	-49.770	-43.511	-36.359	-5.662
607529.747	-32.187	-19.372	-27.120	80.764	-67.651	-29.206	-36.955	15.199
607529.755	-51.260	-38.147	-49.174	65.267	-88.513	-40.233	-40.233	-4.470
607529.763	-57.220	-49.770	-45.300	48.578	-71.824	-50.664	-59.009	-8.643
607529.771	-63.777	-57.518	-45.598	32.783	-61.989	-51.856	-61.989	-7.153
607529.779	-72.122	-65.565	-50.366	15.199	-55.730	-59.009	-63.479	-20.862
607529.787	-92.089	-85.831	-68.247	-11.921	-57.220	-52.452	-68.545	-4.172
607529.795	-97.454	-93.579	-70.632	-23.842	-50.068	-64.969	-67.949	-23.842
607529.803	-112.057	-110.567	-81.062	-46.194	-53.346	-60.797	-72.420	-12.219
607529.811	-129.640	-126.064	-93.877	-69.141	-55.730	-62.585	-75.698	-11.921
607529.815	-120.699	-117.123	-85.235	-67.055	-43.809	-78.082	-80.764	-29.504
607529.823	-135.601	-129.938	-96.560	-82.552	-53.942	-65.267	-80.168	-8.643
607529.831	-140.071	-134.408	-100.434	-86.427	-57.518	-72.122	-78.082	-27.716
607529.839	-140.369	-140.965	-104.904	-90.301	-59.307	-67.949	-78.380	-18.477
607529.847	-140.965	-137.091	-106.096	-88.513	-61.393	-60.201	-72.122	-10.431
607529.855	-140.071	-133.812	-103.116	-88.811	-61.095	-62.883	-69.737	-19.670
607529.863	-145.137	-140.369	-107.884	-95.665	-64.969	-46.492	-65.267	0.000
607529.871	-137.687	-135.303	-101.924	-84.639	-62.883	-62.883	-67.949	-22.650
607529.879	-138.879	-136.197	-106.394	-91.195	-64.671	-64.969	-74.804	-17.285
607529.887	-140.667	-137.389	-106.990	-93.877	-64.969	-59.605	-73.314	-11.027
607529.895	-134.706	-135.899	-102.818	-92.089	-66.757	-65.863	-70.930	-23.842
607529.903	-142.157	-143.647	-112.653	-95.963	-77.486	-56.028	-71.824	-4.768
607529.911	-133.216	-135.303	-104.308	-84.937	-73.612	-55.134	-64.373	-14.603
607529.919	-135.899	-150.800	-109.375	-97.156	-75.102	-53.346	-67.353	-9.835
607529.927	-139.177	-153.780	-111.461	-102.520	-75.698	-58.413	-70.333	-15.497
607529.935	-134.110	-146.031	-111.759	-99.838	-75.400	-68.545	-71.824	-30.696
607529.943	-156.164	-167.787	-132.918	-118.613	-94.175	-56.922	-75.400	-11.921
607529.951	-131.726	-136.197	-112.057	-78.380	-83.447	-66.459	-71.824	-28.908
607529.959	-126.660	-132.918	-114.441	-67.651	-87.321	-56.326	-62.585	-16.987
607529.967	-125.468	-132.322	-118.911	-53.942	-94.473	-55.432	-60.797	-18.179
607529.975	-116.825	-123.680	-117.123	-35.167	-99.540	-63.479	-59.903	-34.273
607529.983	-126.660	-137.687	-131.130	-42.021	-109.971	-47.088	-57.220	-8.643
607529.991	-120.401	-128.150	-123.680	-30.100	-107.288	-48.280	-50.664	-18.477
607529.999	-123.084	-132.918	-128.448	-34.869	-111.461	-47.386	-54.240	-12.219
607530.007	-128.448	-138.879	-132.322	-41.723	-112.355	-47.684	-52.452	-12.815
607530.015	-118.613	-133.216	-122.190	-32.783	-104.308	-53.048	-47.684	-22.054
607530.023	-127.554	-140.667	-130.236	-41.127	-108.480	-40.233	-50.664	-2.682
607530.031	-125.468	-133.216	-128.448	-40.531	-107.884	-53.048	-54.836	-22.054
607530.021	-131.130	-139.177	-136.495	-48.578	-111.163	-47.982	-55.134	-10.431
607530.029	-136.495	-146.627	-142.455	-53.346	-111.461	-42.915	-49.770	-6.258
607530.037	-123.978	-143.349	-131.428	-39.637	-101.924	-41.723	-36.657	-13.709
607530.045	-131.130	-150.204	-136.793	-50.366	-107.288	-29.504	-37.551	4.768
607530.053	-128.448	-142.455	-132.620	-46.492	-107.884	-42.915	-41.723	-14.007
607530.061	-130.534	-146.627	-139.177	-51.856	-107.884	-38.743	-46.492	-2.384
607530.069	-135.899	-151.396	-142.157	-64.373	-106.394	-35.465	-46.194	2.086
607530.077	-128.150	-145.733	-130.832	-56.624	-96.560	-39.339	-44.107	-9.239
607530.085	-128.150	-143.051	-132.918	-56.326	-93.281	-25.928	-40.531	7.153
607530.093	-117.421	-135.303	-118.613	-46.790	-85.235	-36.657	-34.571	-11.921
607530.101	-119.805	-142.157	-123.084	-61.095	-85.831	-37.551	-36.657	-5.066
607530.109	-126.064	-142.157	-128.448	-56.922	-90.897	-38.743	-44.405	-3.278
607530.117	-115.633	-127.554	-121.891	-36.359	-87.023	-48.578	-47.088	-18.477
607530.125	-121.891	-133.812	-125.468	-40.829	-89.705	-37.849	-47.386	0.596
607530.133	-115.931	-129.640	-113.845	-34.869	-81.062	-46.492	-46.492	-16.987
607530.141	-109.076	-126.064	-109.673	-37.849	-75.102	-39.339	-43.213	-5.066
607530.149	-111.163	-127.256	-110.269	-44.405	-77.486	-39.339	-43.213	-4.172
607530.157	-104.308	-122.190	-103.712	-36.061	-72.122	-40.829	-36.955	-11.921
607530.165	-107.586	-129.044	-108.778	-42.021	-72.718	-28.014	-34.869	5.662
607530.173	-90.301	-106.692	-92.387	-18.179	-63.777	-42.319	-39.339	-16.689
607530.181	-90.897	-104.904	-95.963	-18.775	-68.545	-37.551	-40.531	-6.258
607530.189	-99.838	-111.759	-101.030	-24.438	-72.420	-36.955	-42.319	-5.364
607530.197	-90.301	-104.308	-90.003	-19.073	-66.161	-45.002	-39.339	-18.179
607530.205	-95.069	-118.017	-95.665	-29.206	-68.545	-33.379	-36.657	0.894
607530.213	-95.367	-118.911	-93.281	-30.398	-70.632	-45.002	-39.339	-18.179
607530.221	-96.560	-116.527	-98.348	-30.100	-73.314	-39.637	-42.319	-8.643
607530.229	-102.222	-115.037	-106.096	-21.458	-79.870	-39.637	-44.405	-8.345
607530.237	-90.301	-102.818	-94.473	-12.815	-77.188	-49.770	-45.300	-23.246
607530.258	-93.579	-109.971	-93.281	-21.160	-75.400	-38.743	-44.703	-0.298
607530.266	-88.513	-104.606	-88.513	-12.815	-70.035	-50.664	-44.107	-20.266
607530.274	-94.175	-117.123	-95.963	-21.756	-75.102	-46.790	-46.790	-12.517
607530.282	-92.685	-118.017	-92.685	-30.100	-70.333	-40.233	-41.127	-4.470
607530.290	-82.254	-103.712	-80.466	-17.881	-61.691	-47.088	-41.723	-20.266
607530.298	-86.129	-108.778	-82.850	-14.901	-63.479	-38.147	-42.617	-1.490
607530.306	-79.274	-104.606	-75.698	-13.411	-56.624	-46.194	-37.551	-17.583
607530.314	-82.254	-109.375	-79.870	-29.206	-57.817	-46.492	-42.021	-11.623
607530.322	-76.890	-93.877	-74.208	-7.451	-57.518	-42.617	-42.319	-8.047
607530.330	-67.949	-83.447	-67.353	9.239	-52.452	-47.386	-41.127	-21.160
607530.338	-77.784	-103.116	-73.314	-5.960	-59.605	-37.253	-41.723	0.894
607530.346	-65.267	-87.917	-61.989	1.788	-50.962	-43.213	-35.465	-15.497
607530.354	-68.545	-91.791	-59.307	-6.258	-54.240	-44.703	-43.511	-11.325
607530.362	-64.671	-88.513	-56.028	4.172	-48.578	-43.511	-44.405	-7.749
607530.370	-55.730	-78.976	-49.770	8.941	-42.021	-46.492	-39.339	-19.372
607530.378	-64.373	-87.619	-58.115	-7.749	-50.664	-36.955	-37.551	-2.384
607530.386	-51.260	-76.890	-41.425	5.960	-41.425	-40.829	-35.465	-12.517
607530.394	-54.240	-77.188	-43.809	17.285	-42.617	-46.194	-47.684	-11.921
607530.402	-60.797	-75.102	-52.750	19.968	-46.194	-47.982	-52.154	-14.603
607530.410	-54.538	-70.930	-48.280	18.179	-42.617	-50.962	-47.982	-25.630
607530.418	-59.903	-84.341	-52.452	3.576	-45.598	-39.637	-44.703	-5.960
607530.426	-57.817	-85.235	-46.194	3.874	-44.703	-46.492	-39.339	-21.160
607530.434	-58.413	-85.533	-50.664	1.192	-49.770	-38.743	-34.869	-10.431
607530.442	-58.413	-83.148	-52.452	5.662	-49.770	-35.763	-31.292	-6.258
607530.450	-56.624	-86.725	-50.366	6.855	-46.790	-44.107	-33.975	-17.285
607530.458	-59.307	-94.175	-53.048	-2.980	-45.896	-30.994	-33.975	5.364
607530.466	-43.511	-64.373	-36.955	26.524	-40.531	-40.829	-32.783	-14.901
607530.474	-46.492	-71.526	-39.041	31.292	-45.002	-42.021	-36.955	-14.007
607530.477	-50.366	-71.526	-41.127	28.610	-46.492	-38.147	-33.975	-10.133
607530.485	-44.107	-69.141	-38.445	26.524	-44.703	-47.982	-37.849	-23.544
607530.493	-44.405	-69.141	-39.637	26.226	-42.915	-36.955	-38.743	0.298
607530.501	-39.935	-61.393	-33.677	34.571	-40.233	-44.405	-36.359	-16.093
607530.509	-42.319	-75.102	-32.187	26.524	-39.637	-39.041	-35.763	-6.855
607530.517	-45.598	-70.035	-33.975	25.332	-41.425	-39.935	-41.723	-10.431
607530.525	-42.915	-67.949	-33.379	31.590	-40.531	-50.068	-42.915	-27.120
607530.533	-54.538	-87.321	-43.511	14.603	-50.664	-42.915	-43.511	-10.729
607530.541	-47.386	-75.400	-36.955	23.842	-46.790	-48.280	-41.723	-25.630
607530.549	-43.809	-74.804	-33.975	23.246	-41.723	-37.551	-39.339	-8.047
607530.557	-45.002	-74.804	-36.657	21.756	-41.723	-34.273	-35.763	-3.874
607530.565	-41.425	-72.420	-31.292	27.418	-41.127	-48.578	-40.829	-25.332
607530.573	-50.664	-80.168	-38.147	14.603	-44.405	-39.935	-43.511	-7.451
607530.581	-47.684	-78.380	-33.975	13.113	-42.021	-40.233	-38.147	-16.689
607530.589	-44.703	-81.062	-32.187	14.007	-41.723	-32.485	-36.359	-3.576
607530.597	-49.472	-90.301	-34.571	8.643	-46.492	-32.187	-36.657	-1.788
607530.605	-42.915	-78.380	-31.292	14.305	-42.617	-39.041	-36.657	-11.921
607530.613	-44.703	-74.804	-34.571	22.054	-45.896	-25.928	-36.657	5.662
607530.621	-38.445	-71.824	-28.312	30.100	-43.511	-28.014	-31.292	-5.662
607530.629	-44.405	-81.360	-33.975	16.093	-53.942	-22.650	-31.590	3.874
607530.637	-61.095	-106.692	-50.962	-3.576	-64.969	-25.332	-30.696	0.894
607530.645	-38.445	-88.811	-28.312	10.133	-41.723	-38.743	-32.485	-16.391
607530.653	-29.206	-77.486	-22.054	16.391	-36.061	-26.226	-30.994	5.066
607530.661	-33.677	-84.937	-24.438	14.305	-40.531	-23.544	-23.544	-5.066
607530.669	-39.339	-94.473	-30.994	4.768	-48.280	-14.603	-22.054	7.153
607530.677	-42.021	-93.579	-36.359	2.086	-50.366	-17.583	-25.034	4.768
607530.685	-34.571	-91.791	-30.100	10.431	-45.002	-26.822	-23.842	-9.537
607530.693	-45.598	-99.242	-39.339	1.788	-54.240	-18.775	-27.120	8.047
607530.696	-37.253	-81.360	-34.571	18.775	-47.684	-29.504	-25.332	-10.431
607530.704	-36.061	-85.533	-36.061	15.497	-44.405	-26.226	-25.928	-3.874
607530.712	-37.849	-94.175	-32.485	8.047	-42.617	-23.842	-26.524	-3.576
607530.720	-27.716	-87.917	-24.438	13.113	-36.359	-29.802	-22.948	-14.007
607530.728	-33.677	-91.791	-34.273	8.941	-39.637	-12.815	-17.285	10.133
607530.736	-34.869	-88.811	-34.273	4.470	-42.319	-25.332	-20.266	-8.941
607530.744	-36.657	-91.195	-34.869	2.384	-40.233	-21.160	-24.736	-1.490
607530.752	-34.273	-89.407	-34.869	9.239	-33.677	-19.073	-24.140	1.192
607530.760	-25.034	-80.168	-24.736	15.497	-26.822	-25.630	-22.352	-10.431
607530.768	-29.802	-88.811	-26.822	7.451	-29.206	-14.603	-20.862	8.643
607530.776	-20.564	-80.764	-19.372	14.305	-20.862	-18.179	-17.285	-6.855
607530.784	-19.073	-78.976	-22.650	8.345	-18.477	-7.451	-11.027	6.855
607530.792	-24.438	-78.678	-23.842	10.133	-23.246	-6.557	-10.431	9.835
607530.800	-16.987	-75.400	-16.689	11.623	-15.795	-18.477	-13.709	-2.980
607530.808	-21.458	-82.552	-20.266	0.596	-16.391	-7.153	-15.199	16.987
607530.816	-12.815	-75.996	-18.775	12.815	-10.729	-20.862	-15.795	-2.980
607530.824	-13.709	-72.420	-23.544	13.709	-9.537	-15.795	-14.007	5.960
607530.832	-29.206	-81.956	-33.081	-0.298	-19.372	-8.047	-14.603	10.133
607530.840	-27.716	-80.466	-30.100	0.000	-19.073	-12.219	-14.007	-0.596
607530.848	-12.219	-62.883	-20.266	18.477	-12.517	-15.199	-20.862	9.239
607530.856	-9.537	-57.817	-19.372	28.014	-12.815	-28.014	-22.054	-10.431
607530.864	-11.325	-62.585	-18.477	20.564	-4.470	-20.564	-17.583	5.662
607530.872	-15.497	-64.969	-16.987	14.305	-5.960	-14.305	-15.497	10.431
607530.880	-12.517	-68.247	-17.881	12.219	-7.749	-22.352	-16.391	-6.855
607530.888	-19.968	-75.400	-26.822	1.192	-13.411	-13.411	-18.179	8.941
607530.896	-16.987	-67.055	-22.352	9.537	-12.815	-25.332	-17.583	-8.643
607530.904	-20.266	-71.526	-25.928	5.364	-15.795	-19.670	-18.477	1.490
607530.912	-24.140	-73.016	-30.398	1.192	-19.968	-24.438	-23.544	-0.894
607530.933	-15.497	-63.479	-22.054	8.643	-15.497	-30.100	-22.948	-12.815
607530.941	-15.199	-67.651	-23.842	4.470	-12.517	-8.941	-13.113	14.007
607530.949	-13.411	-66.459	-23.842	2.384	-11.921	-14.603	-8.047	3.278
607530.957	-20.564	-71.824	-30.398	-4.768	-19.968	-19.073	-15.497	3.874
607530.965	-20.266	-69.141	-29.802	4.172	-20.862	-17.583	-14.603	4.172
607530.973	-9.239	-55.730	-19.073	11.921	-12.517	-20.266	-13.113	-5.960
607530.981	-17.285	-64.373	-25.928	-0.298	-17.285	-13.411	-17.583	11.027
607530.989	-14.603	-63.777	-22.352	0.894	-15.199	-24.438	-21.756	-11.921
607530.997	-12.815	-62.585	-19.670	6.557	-13.709	-21.756	-23.246	-3.576
607531.005	-13.709	-60.797	-20.266	9.239	-15.199	-16.689	-19.968	1.788
607531.013	-5.662	-56.624	-13.113	9.537	-9.239	-21.756	-20.862	-7.153
607531.021	-12.219	-57.518	-20.266	2.086	-14.007	-13.113	-21.160	13.411
607531.029	-5.662	-44.405	-16.391	16.987	-13.411	-20.564	-19.670	-0.596
607531.037	-7.153	-47.088	-16.689	15.497	-15.199	-17.285	-22.054	7.153
607531.045	-11.921	-54.538	-18.477	13.113	-18.179	-11.921	-16.391	9.537
607531.053	-10.729	-54.836	-18.775	3.576	-19.968	-19.073	-12.815	-5.662
607531.061	-17.881	-62.883	-28.312	-10.729	-26.822	-10.431	-16.987	11.325
607531.069	-15.497	-57.518	-22.948	1.192	-27.120	-16.093	-15.497	-3.278
607531.077	-7.451	-46.492	-16.689	16.987	-23.544	-4.470	-8.345	12.219
607531.085	-2.384	-42.617	-10.729	17.583	-18.179	0.596	-0.894	15.795
607531.093	-4.172	-44.703	-16.689	15.497	-20.564	-14.603	-3.874	-2.980
607531.101	-11.921	-56.326	-24.140	7.153	-30.994	-7.749	-13.709	14.901
607531.109	0.000	-40.829	-11.325	22.352	-21.756	-13.113	-10.431	0.894
607531.117	-3.278	-44.405	-12.815	17.285	-22.054	-8.941	-11.325	7.749
607531.125	-8.941	-44.405	-15.497	16.689	-28.014	-9.537	-13.113	5.960
607531.133	0.298	-38.147	-10.729	23.544	-21.160	-15.497	-8.047	-4.768
607531.141	-4.172	-46.790	-16.689	14.603	-22.650	-6.258	-7.451	12.815
607531.149	1.490	-31.590	-6.855	28.014	-19.372	-12.219	-3.576	-1.788
607531.151	1.490	-31.292	-8.941	24.140	-20.564	-9.239	-9.835	5.066
607531.159	-6.258	-43.213	-17.881	14.305	-25.034	-8.643	-11.027	5.364
607531.167	-5.364	-44.405	-15.199	16.391	-25.332	-19.670	-11.921	-9.835
607531.175	-6.258	-44.107	-16.689	13.411	-28.610	-11.027	-9.835	9.537
607531.183	-2.682	-42.319	-12.815	12.815	-26.524	-14.901	-4.172	-4.470
607531.191	-6.557	-43.809	-18.477	14.603	-31.590	-11.027	-9.239	6.855
607531.199	-7.749	-42.617	-17.881	22.948	-33.081	-6.855	-11.027	10.431
607531.207	0.298	-33.379	-9.835	29.802	-29.504	-13.709	-7.451	0.298
607531.215	-12.815	-46.790	-24.438	11.623	-41.127	-10.431	-14.305	13.113
607531.223	-6.855	-40.233	-19.372	14.007	-38.147	-18.477	-11.623	-6.557
607531.231	-5.364	-42.319	-19.073	16.093	-37.253	-8.941	-6.855	5.364
607531.239	-6.258	-39.935	-18.179	18.775	-37.849	-9.835	-11.623	5.066
607531.247	1.490	-35.763	-9.835	23.544	-31.590	-16.987	-11.623	-8.047
607531.255	-4.768	-43.809	-15.795	17.881	-34.571	-7.451	-8.941	13.113
607531.263	6.258	-25.034	-5.364	32.485	-28.014	-13.709	-5.364	-1.490
607531.271	6.557	-26.822	-6.855	32.187	-30.100	-9.239	-7.749	8.941
607531.279	7.153	-19.073	-5.364	25.928	-31.292	-8.047	-5.662	11.623
607531.287	14.007	-13.709	1.490	41.127	-27.716	-15.497	-10.431	-3.874
607531.295	5.364	-23.246	-4.172	36.657	-35.167	-2.682	-10.729	15.199
607531.303	1.788	-27.716	-8.941	30.994	-44.405	-16.987	-9.239	-4.768
607531.311	5.662	-24.140	-10.729	27.120	-43.213	-12.517	-6.855	4.470
607531.319	4.768	-19.073	-9.835	33.677	-41.127	-12.517	-5.066	7.451
607531.327	12.219	-10.729	1.192	43.213	-33.081	-17.881	-3.874	0.298
607531.335	2.086	-30.398	-4.172	27.716	-38.147	-2.682	-3.576	21.160
607531.343	0.894	-30.398	-8.941	26.226	-39.637	-11.027	-5.662	1.788
607531.351	2.384	-25.034	-9.835	31.292	-40.531	-6.855	-5.662	9.239
607531.359	-7.451	-36.955	-11.623	19.073	-48.578	-13.113	-13.113	4.470
607531.367	-2.682	-41.127	-5.662	10.431	-44.107	-21.458	-11.623	-7.749
607531.372	-5.662	-42.617	-11.921	8.345	-48.578	-13.113	-12.517	8.643
607531.380	-8.047	-37.849	-16.987	20.862	-62.585	-19.073	-9.239	-5.066
607531.388	-32.187	-77.486	-42.319	-13.411	-81.062	-9.239	-7.451	5.066
607531.396	-8.941	-51.558	-11.921	-2.980	-49.174	-11.623	-15.199	1.192
607531.404	17.881	-25.034	16.093	13.709	-25.928	-21.160	-17.285	-13.411
607531.412	21.458	-23.246	27.716	-0.298	-15.199	-15.795	-23.842	3.874
607531.420	31.292	-13.411	41.723	-1.788	-4.172	-27.716	-26.226	-13.411
607531.428	33.975	-16.987	43.809	-15.795	4.172	-26.822	-31.590	-11.921
607531.436	40.829	-12.219	57.220	-24.736	19.670	-21.458	-29.802	-8.345
607531.444	53.942	-2.384	75.102	-16.689	34.273	-33.379	-31.590	-25.332
607531.452	45.598	-12.517	67.353	-29.504	32.783	-29.206	-33.379	-9.239
607531.460	42.617	-14.007	64.075	-32.187	32.783	-35.763	-32.783	-24.438
607531.468	35.763	-22.352	54.240	-43.809	27.418	-25.034	-33.379	-11.623
607531.476	34.869	-22.650	54.836	-44.703	29.206	-14.603	-25.630	0.894
607531.484	43.511	-18.775	60.797	-36.955	37.253	-18.775	-19.073	-8.047
607531.492	28.610	-36.657	45.598	-52.452	26.822	-12.815	-22.650	3.874
607531.500	28.312	-33.975	49.472	-50.664	26.822	-15.795	-21.160	-9.835
607531.508	23.842	-37.551	43.213	-59.009	23.842	-11.921	-22.948	2.682
607531.516	15.795	-45.896	33.975	-66.459	18.775	-17.881	-31.292	0.894
607531.524	27.716	-34.869	42.319	-54.538	28.610	-23.544	-28.908	-11.623
607531.532	21.756	-38.147	35.167	-58.711	25.928	-13.113	-28.014	6.557
607531.540	25.928	-31.888	39.637	-53.346	28.312	-23.842	-24.438	-14.007
607531.548	25.332	-34.869	39.041	-54.538	28.014	-30.398	-30.994	-14.901
607531.556	26.226	-33.677	43.213	-53.346	32.187	-30.994	-30.398	-12.815
607531.564	38.147	-27.120	53.942	-47.684	42.915	-34.273	-28.908	-22.352
607531.572	41.723	-20.266	56.028	-42.617	48.578	-20.862	-28.610	-2.384
607531.580	52.154	-4.172	65.267	-26.822	56.624	-25.928	-25.332	-16.987
607531.588	53.048	-3.576	66.757	-27.418	56.028	-20.862	-27.716	-6.557
607531.606	54.240	-1.490	68.843	-25.332	56.922	-15.199	-26.226	-2.086
607531.614	63.777	8.941	77.188	-18.775	64.373	-17.583	-19.372	-8.345
607531.622	57.817	5.662	70.930	-24.736	63.777	-1.192	-11.623	14.901
607531.630	62.883	12.517	75.400	-19.073	63.777	-11.921	-13.411	-1.490
607531.638	59.009	6.557	71.228	-27.716	58.413	-12.815	-22.650	5.066
607531.646	50.366	2.980	65.863	-28.312	52.750	-11.921	-24.438	5.364
607531.654	63.479	14.007	75.102	-13.113	62.287	-11.027	-11.623	-2.384
607531.662	58.413	6.557	66.459	-26.822	60.797	4.172	-3.576	18.179
607531.670	46.492	-1.788	58.413	-36.359	50.664	-7.153	-7.451	-1.192
607531.678	61.095	14.603	68.545	-16.689	54.538	-6.855	-15.795	5.066
607531.686	60.797	19.372	63.479	-7.451	47.386	-5.662	-16.987	8.643
607531.694	61.393	24.140	60.797	3.278	42.021	-12.815	-15.795	-3.576
607531.702	47.088	12.517	48.876	-7.451	31.292	-2.980	-15.795	14.305
607531.710	52.452	14.007	52.452	-4.172	32.485	-5.960	-9.537	1.490
607531.718	56.624	13.113	52.452	-5.066	33.379	-4.172	-8.941	6.855
607531.726	53.644	11.921	53.346	-6.557	33.081	-3.874	-9.537	10.729
607531.734	61.393	20.266	61.393	1.788	39.935	-6.258	-4.172	2.384
607531.742	58.413	17.285	54.240	-4.470	39.935	2.682	-3.278	22.352
607531.750	57.518	19.073	54.538	-6.258	34.869	-12.219	-10.729	-1.788
607531.758	58.115	19.670	57.220	-3.278	34.571	-9.537	-10.729	2.682
607531.766	59.009	21.160	57.518	1.192	35.167	-1.490	-4.470	8.941
607531.774	62.287	24.736	60.797	1.788	34.869	-10.133	-5.364	-2.384
607531.782	51.260	13.709	50.366	-11.325	25.928	-0.298	-8.047	17.285
607531.790	54.240	24.736	54.538	1.192	25.630	-5.960	-5.066	3.278
607531.798	56.624	25.332	56.922	2.980	25.928	0.298	-5.960	11.623
607531.806	48.876	14.007	48.578	-6.855	23.246	-0.596	-8.941	11.623
607531.814	53.644	19.372	52.750	-1.788	22.054	-7.451	-6.855	-2.980
607531.822	47.982	11.325	47.684	-12.219	20.266	5.364	-1.192	21.756
607531.842	47.982	17.583	45.598	-13.411	16.689	-6.557	-5.662	2.086
607531.850	53.644	20.266	50.068	-3.874	18.775	-0.596	-10.431	13.411
607531.858	45.300	13.113	43.809	-7.153	14.305	-0.298	-12.219	16.093
607531.866	46.790	9.835	46.790	-6.258	18.179	-3.874	-5.662	3.278
607531.874	45.002	14.603	42.617	4.768	16.987	6.855	-4.172	23.842
607531.882	61.095	32.485	58.115	17.285	28.312	-0.596	-0.596	10.431
607531.890	60.797	31.888	59.903	10.431	25.928	2.682	2.086	20.564
607531.898	46.492	14.603	46.194	-3.576	9.835	-2.682	-7.153	15.199
607531.906	51.856	15.795	49.770	0.000	16.689	-8.345	-5.662	-0.596
607531.914	47.684	14.603	40.531	-3.874	18.775	4.768	0.596	22.352
607531.922	46.790	17.285	43.809	-0.596	15.497	-2.980	0.894	3.576
607531.930	44.405	15.199	40.829	-0.596	10.431	-0.298	-2.980	11.623
607531.938	24.736	2.384	16.391	-10.133	-8.345	1.788	-4.172	14.603
607531.946	14.305	-14.305	21.458	-40.531	-23.544	-0.298	2.682	7.749
607531.954	47.088	15.199	58.413	-9.835	9.239	0.894	-7.451	18.179
607531.962	76.592	51.856	87.917	21.756	32.187	-10.133	-11.027	-4.172
607531.970	97.156	65.863	104.904	23.246	50.664	-6.557	-9.239	5.066
607531.978	106.096	81.658	118.911	26.226	59.903	0.596	-7.749	14.305
607531.986	117.421	93.877	133.216	36.061	69.439	-12.517	-10.431	-5.364
607531.994	102.818	72.122	116.825	14.007	52.154	-7.749	-13.411	7.749
607532.002	95.963	64.075	107.884	6.855	42.021	-11.921	-10.133	-2.086
607532.010	84.043	50.366	95.665	-4.768	40.829	-1.788	-8.047	12.517
607532.018	78.678	48.578	90.599	-7.451	39.637	0.894	-9.239	16.093
607532.026	81.658	52.452	92.983	-0.596	40.829	-11.027	-13.411	-0.298
607532.034	70.632	38.743	85.533	-12.517	34.869	-2.682	-14.305	16.987
607532.042	70.632	41.425	87.917	-10.431	34.571	-2.980	-7.153	5.364
607532.050	69.439	36.061	86.725	-11.921	31.888	7.749	-5.662	20.266
607532.058	68.843	39.637	85.533	-10.133	28.610	17.285	-3.576	33.379
607532.066	80.764	54.836	96.560	-2.384	41.723	16.987	3.278	23.842
607532.074	73.910	44.703	84.937	-12.517	36.061	30.100	8.941	42.617
607532.082	70.035	46.790	81.658	-5.066	28.610	8.643	-0.596	14.007
607532.090	71.228	49.472	88.215	-1.788	22.054	-3.278	-11.325	8.941
607532.077	65.565	41.723	86.129	-3.278	15.199	-8.643	-13.709	5.662
607532.085	75.400	56.028	96.858	6.258	23.246	-7.153	-3.874	-0.894
607532.093	70.333	50.962	87.023	2.086	21.160	0.298	-10.431	15.795
607532.101	76.592	54.538	98.348	11.325	27.120	-2.980	-11.623	3.874
607532.109	71.824	48.876	94.473	5.960	31.292	3.874	-9.537	17.583
607532.117	57.817	35.465	73.612	-7.153	22.352	0.298	-11.623	14.901
607532.125	66.459	47.982	85.831	0.596	13.709	-14.305	-15.795	-3.278
607532.133	61.691	47.386	86.725	0.000	8.345	-4.470	-17.881	14.305
607532.141	64.373	45.896	89.109	2.384	8.047	-8.643	-13.113	-0.298
607532.149	67.949	43.213	88.811	1.788	13.411	-4.768	-12.517	10.133
607532.157	71.228	52.452	93.281	8.941	22.352	-1.788	-12.219	13.709
607532.165	70.035	44.107	89.407	6.557	17.583	-11.623	-16.093	-2.682
607532.173	58.413	31.888	71.824	-5.662	-0.298	-5.066	-19.670	12.517
607532.181	68.843	50.068	75.102	6.855	9.239	-8.345	-11.921	-1.490
607532.189	73.612	45.896	96.858	12.219	11.623	-4.470	-10.729	6.855
607532.197	73.016	43.809	98.944	18.179	6.258	-2.086	-11.027	8.047
607532.205	76.592	53.048	97.156	28.610	10.133	-4.768	-10.133	-5.662
607532.213	72.718	42.915	92.983	17.881	5.364	1.788	-13.709	13.709
607532.221	77.486	43.511	97.454	19.073	8.643	-11.325	-17.285	-6.557
607532.229	72.718	32.783	92.089	11.325	7.451	-8.941	-17.583	-2.682
607532.237	61.095	26.226	80.168	2.682	0.298	-2.980	-10.431	4.172
607532.245	72.718	38.147	83.148	15.795	6.557	-2.980	-3.278	-3.874
607532.253	64.969	31.888	74.208	10.133	2.086	6.557	-5.662	18.179
607532.261	68.247	37.551	89.109	17.881	4.470	-6.258	-9.537	-1.490
607532.269	78.678	46.790	102.520	16.987	25.928	-8.345	-14.603	2.682
607532.277	65.267	29.802	83.447	2.086	17.583	-3.874	-10.729	9.239
607532.285	63.181	24.438	79.274	-0.298	13.709	-13.113	-11.921	-9.239
607532.293	50.962	11.921	70.035	-14.305	7.153	-5.364	-14.901	8.345
607532.297	52.452	15.497	75.400	-8.345	13.113	-11.921	-13.709	-6.557
607532.305	57.817	19.670	78.976	-5.066	17.881	-2.086	-8.047	5.960
607532.313	54.240	16.093	80.466	-9.239	18.179	3.278	-4.172	14.901
607532.321	61.393	26.822	82.850	-2.384	21.756	-8.047	-8.643	-0.596
607532.329	56.028	22.948	70.930	-10.431	20.862	-3.278	-14.901	12.219
607532.337	61.691	24.736	76.294	1.192	27.418	-3.874	-5.960	-1.490
607532.345	61.691	27.120	72.122	5.364	28.014	2.384	-1.490	7.153
607532.353	54.538	28.014	66.161	0.894	21.160	3.874	-4.172	10.431
607532.361	62.883	32.485	73.612	5.066	28.908	-1.490	-1.490	1.192
607532.369	57.518	21.756	72.420	-3.576	28.014	9.537	-0.894	19.073
607532.377	64.671	30.100	88.513	3.874	32.783	-0.298	0.596	0.596
607532.385	60.499	29.802	80.168	-2.086	30.398	-1.192	-5.364	5.066
607532.393	44.703	14.603	61.393	-15.497	23.246	-8.047	-16.093	2.682
607532.401	49.472	16.391	65.863	-9.239	26.226	-16.987	-15.497	-10.133
607532.409	43.809	14.007	59.307	-14.007	20.266	-3.576	-13.411	11.027
607532.417	47.088	22.650	55.432	-10.133	18.775	-5.960	-6.557	1.490
607532.425	48.578	11.623	56.326	-16.689	21.458	-5.066	-7.451	9.239
607532.433	51.260	17.583	66.161	-12.517	31.888	-6.557	-13.411	7.451
607532.441	62.883	41.723	83.148	10.431	42.319	-13.113	-11.921	-7.451
607532.449	55.730	35.763	74.506	5.960	33.975	0.894	-6.855	14.603
607532.457	59.009	36.955	76.890	7.451	34.571	0.000	-0.596	2.384
607532.465	52.750	25.630	67.949	-2.086	27.418	-1.490	-7.749	4.470
607532.473	49.174	27.120	67.353	-1.788	26.524	-0.894	-9.239	8.941
607532.481	58.711	35.465	73.612	4.172	26.822	0.894	-2.384	0.596
607532.489	44.703	20.862	54.836	-10.729	16.391	10.133	-4.172	18.179
607532.497	52.750	30.994	63.181	-1.788	27.716	1.490	-1.788	4.172
607532.505	57.220	34.869	71.824	2.086	30.696	2.682	1.192	11.623
607532.513	55.730	34.869	71.526	-0.298	30.398	3.278	-1.192	11.921
607532.530	63.181	42.319	70.333	6.557	32.485	-1.192	1.788	0.596
607532.538	54.538	29.206	67.949	1.490	23.544	14.603	7.451	23.842
607532.546	51.260	29.802	69.439	2.086	27.716	3.576	4.470	4.470
607532.554	49.472	28.610	66.161	-2.682	22.948	-0.596	-5.364	6.557
607532.562	47.982	31.590	64.969	-3.278	15.497	2.086	-6.855	12.517
607532.570	62.287	47.386	76.890	12.517	21.160	-0.596	-2.086	4.768
607532.578	53.644	33.975	65.863	1.788	14.603	5.960	-1.490	20.266
607532.586	53.942	45.002	64.075	3.874	30.696	-4.470	-3.576	0.596
607532.594	55.432	43.809	67.651	2.384	28.610	-5.960	-8.941	3.576
607532.602	49.174	36.657	66.161	-0.596	17.881	-7.153	-9.835	7.451
607532.610	49.472	38.743	71.228	5.960	15.795	-9.835	-5.662	-3.874
607532.618	42.617	30.696	56.922	-1.192	5.960	0.000	-4.470	14.603
607532.626	50.962	38.147	63.479	2.980	10.431	-6.258	-0.596	-1.192
607532.634	50.366	36.657	64.373	9.239	8.941	-5.066	-5.066	4.768
607532.642	44.405	38.147	61.095	6.258	2.086	-2.980	-7.749	9.835
607532.650	46.790	37.551	61.393	9.239	5.960	-6.855	-6.258	-0.596
607532.658	44.405	34.869	56.922	5.960	6.855	6.855	-3.576	20.266
607532.666	51.856	53.644	64.075	18.179	8.941	1.490	-0.894	7.153
607532.674	50.962	46.492	62.287	12.517	1.490	2.384	-0.298	13.709
607532.682	36.955	30.398	47.684	0.000	-6.258	4.768	-1.192	14.007
607532.690	43.213	37.551	51.856	9.835	2.384	-3.278	-1.490	1.192
607532.698	45.002	39.041	61.393	4.172	3.278	6.855	-4.470	22.352
607532.706	50.962	50.068	68.247	14.305	5.960	3.278	-1.788	7.749
607532.714	48.578	45.896	62.287	13.709	-2.384	5.364	-2.384	14.603
607532.722	39.637	41.723	53.048	6.557	-17.285	6.855	-0.894	16.689
607532.730	44.405	42.021	57.817	13.113	-7.749	-4.172	-1.192	2.086
607532.738	38.743	33.081	54.836	2.086	-1.490	0.596	-6.557	18.775
607532.746	45.002	39.637	61.989	2.086	4.768	-1.490	-4.470	7.451
607532.749	48.578	42.319	59.903	2.086	-0.596	5.066	-0.894	13.411
607532.757	42.915	43.511	56.624	11.027	-8.941	7.153	1.192	19.670
607532.765	46.790	47.684	62.883	18.179	-7.749	-1.490	1.490	6.855
607532.773	40.829	39.339	61.095	9.835	-10.729	4.470	-1.788	21.160
607532.781	48.578	48.280	67.949	18.775	-2.980	3.874	5.066	9.835
607532.789	48.578	50.068	62.287	19.073	-6.258	10.133	5.960	19.372
607532.797	38.743	45.896	52.750	10.729	-19.968	5.364	0.000	16.987
607532.805	43.511	50.068	56.922	17.881	-16.689	-4.768	-2.384	2.384
607532.813	39.935	41.127	60.499	15.497	-17.583	2.086	-4.172	16.391
607532.821	41.723	42.021	61.691	20.266	-19.372	-11.325	-3.278	-2.384
607532.829	39.339	36.955	56.028	12.517	-22.352	-10.431	-7.153	4.470
607532.837	33.379	38.147	48.876	6.557	-23.544	-3.874	-4.470	13.411
607532.845	38.147	42.617	52.154	11.027	-20.862	-10.729	-2.980	-0.596
607532.853	37.551	39.339	50.366	8.941	-23.842	-1.490	-5.960	16.987
607532.861	42.021	44.703	56.028	19.670	-21.458	-10.133	-7.153	0.000
607532.869	36.955	40.829	53.048	13.709	-27.418	-9.835	-11.325	3.874
607532.877	26.822	30.696	44.703	3.278	-34.571	-10.431	-12.517	3.874
607532.885	23.246	25.630	39.935	4.172	-36.955	-16.689	-10.431	-9.537
607532.893	17.285	22.054	33.379	1.788	-41.723	-6.557	-11.921	10.133
607532.901	32.485	39.637	47.982	13.113	-33.379	-9.239	-3.874	-1.192
607532.909	37.849	37.849	50.962	13.113	-33.975	-5.364	-2.682	6.258
607532.917	29.504	26.524	42.915	6.258	-36.061	-4.172	-3.874	10.729
607532.925	30.696	33.081	43.213	9.537	-32.187	-11.921	-4.470	-1.490
607532.933	24.438	29.206	46.492	5.066	-39.637	-0.894	-3.576	15.795
607532.941	26.822	36.061	37.253	14.305	-42.617	-9.239	-1.788	-2.682
607532.949	31.292	36.955	41.723	12.815	-38.743	-15.497	-6.855	-1.490
607532.957	27.716	31.888	54.240	14.305	-39.339	-14.603	-11.027	1.490
607532.965	28.014	36.359	50.962	16.689	-41.127	-18.179	-12.815	-12.517
