Timestamp	AFz	AF3	AF4	AF7	AF8	Pz	P3	P4	2023-06-28 15:01:30.521	fs=125
607001.497	47.386	180.602	889.599	-2960.265	1637.936	3021.956	1747.310	1498.163
607001.505	65.565	193.417	915.825	-2928.674	1642.108	3024.936	1761.317	1498.163
607001.513	50.068	179.708	913.441	-2942.085	1635.253	3035.665	1752.377	1505.613
607001.521	53.644	187.755	916.719	-2935.231	1645.982	3026.128	1755.655	1499.653
607001.529	49.770	177.026	902.116	-2948.940	1643.896	3040.731	1764.894	1509.786
607001.537	44.405	172.555	886.321	-2973.974	1626.909	3033.876	1754.165	1503.825
607001.545	56.028	188.351	907.481	-2948.344	1633.167	3025.830	1754.463	1496.971
607001.553	41.127	170.171	898.242	-2959.669	1628.697	3026.426	1738.965	1496.971
607001.561	44.107	172.555	900.030	-2963.245	1624.227	3017.485	1746.118	1490.414
607001.569	49.174	181.198	907.481	-2947.152	1631.081	3029.406	1756.847	1501.441
607001.577	42.617	170.171	897.646	-2961.457	1627.803	3026.128	1747.608	1498.163
607001.585	55.730	186.563	910.163	-2956.688	1627.505	3025.830	1758.635	1495.481
607001.593	55.730	190.139	922.084	-2939.999	1644.790	3030.896	1751.483	1501.739
607001.601	56.624	190.735	919.700	-2932.250	1651.645	3021.657	1753.569	1495.481
607001.609	51.856	177.622	910.759	-2944.768	1636.446	3029.704	1753.569	1499.951
607001.617	50.068	188.351	912.249	-2942.681	1629.293	3023.446	1747.608	1499.951
607001.625	61.095	199.974	910.759	-2928.376	1630.783	3027.320	1764.894	1505.017
607001.633	50.366	180.900	913.441	-2948.344	1625.121	3036.559	1756.251	1509.190
607001.641	51.260	179.708	924.766	-2959.073	1628.995	3036.857	1759.827	1504.123
607001.649	45.300	173.450	909.269	-2967.417	1617.372	3054.142	1766.980	1512.766
607001.657	46.194	175.238	903.606	-2951.622	1624.823	3046.691	1757.741	1508.594
607001.665	53.048	181.794	905.693	-2933.145	1637.638	3044.009	1766.682	1507.103
607001.673	30.398	158.846	880.957	-2963.841	1615.584	3047.884	1752.973	1509.488
607001.681	30.696	159.442	886.321	-2965.033	1599.789	3045.797	1762.211	1506.209
607001.689	61.691	183.284	917.315	-2938.509	1614.988	3051.460	1770.556	1510.084
607001.697	61.989	183.284	909.567	-2928.376	1618.266	3049.374	1764.000	1504.421
607001.705	76.592	196.993	914.931	-2900.362	1621.246	3054.738	1778.901	1506.805
607001.713	73.314	192.225	899.434	-2882.481	1610.219	3065.169	1777.708	1518.130
607001.718	73.314	187.755	894.368	-2878.010	1600.087	3054.440	1775.324	1505.315
607001.726	71.824	179.708	887.215	-2894.104	1589.656	3060.698	1779.199	1509.488
607001.734	55.134	157.058	878.572	-2919.137	1579.523	3054.142	1771.748	1505.017
607001.742	64.671	163.317	883.937	-2907.812	1588.166	3055.036	1781.285	1504.123
607001.750	53.942	153.184	873.506	-2910.495	1576.841	3054.440	1765.192	1507.401
607001.758	62.883	160.933	878.274	-2905.726	1585.782	3045.797	1771.450	1502.037
607001.766	61.989	160.038	876.486	-2903.938	1596.510	3045.797	1773.834	1504.719
607001.774	52.750	153.482	866.652	-2912.581	1595.616	3030.598	1757.443	1493.990
607001.782	58.413	160.635	873.804	-2905.428	1595.914	3028.512	1765.490	1492.500
607001.790	47.684	140.369	860.691	-2917.349	1585.186	3030.002	1754.463	1498.461
607001.798	57.220	146.925	865.161	-2913.475	1590.252	3026.426	1763.105	1496.077
607001.806	50.664	154.674	856.817	-2918.839	1582.503	3035.665	1764.894	1501.441
607001.814	50.366	155.866	866.055	-2909.899	1589.060	3017.783	1750.588	1488.924
607001.822	69.439	168.383	881.553	-2897.680	1610.816	3016.293	1761.913	1486.540
607001.830	55.730	148.416	871.420	-2904.236	1610.219	3008.246	1745.522	1483.262
607001.838	59.605	159.740	864.267	-2896.190	1614.690	3000.498	1748.204	1473.129
607001.846	68.545	169.873	866.950	-2892.017	1621.842	3017.783	1756.549	1486.242
607001.854	60.797	157.356	870.526	-2900.958	1612.604	3010.631	1747.608	1483.262
607001.862	73.314	168.979	891.984	-2892.017	1624.525	3017.485	1763.701	1487.136
607001.870	69.737	165.701	881.553	-2886.355	1634.657	3021.657	1756.251	1495.182
607001.878	82.254	175.834	891.089	-2869.964	1640.618	3018.081	1764.000	1493.394
607001.886	72.122	160.038	867.248	-2883.673	1628.995	3025.830	1766.682	1499.951
607001.894	70.632	171.363	869.334	-2889.931	1626.611	3013.611	1755.059	1491.010
607001.902	84.937	185.072	891.089	-2872.944	1640.022	3014.505	1767.278	1490.116
607001.910	67.353	165.403	878.870	-2894.998	1633.167	3010.631	1752.973	1488.328
607001.918	73.016	171.065	885.725	-2886.057	1640.916	2999.306	1753.271	1479.685
607001.926	74.208	177.622	878.572	-2869.964	1645.088	3005.266	1753.867	1487.136
607001.934	70.632	172.853	868.738	-2864.897	1643.002	2994.537	1743.436	1478.791
607001.937	72.122	170.767	865.459	-2870.560	1639.426	2999.902	1755.655	1479.089
607001.945	57.817	162.423	860.691	-2879.500	1630.485	3000.498	1745.820	1483.262
607001.953	61.393	167.787	864.267	-2858.639	1628.399	2990.365	1748.800	1474.321
607001.961	55.730	161.827	858.009	-2870.858	1619.458	2997.518	1749.098	1477.897
607001.969	61.393	171.363	871.718	-2877.712	1630.485	2989.769	1738.071	1474.321
607001.977	77.486	179.708	879.169	-2856.255	1638.234	2991.259	1746.714	1474.619
607001.985	56.624	164.807	846.386	-2865.791	1619.458	2986.193	1733.005	1473.129
607001.993	62.287	172.555	867.546	-2850.294	1628.995	2980.232	1739.562	1468.062
607002.001	64.075	170.767	871.420	-2842.545	1630.485	2986.491	1738.965	1470.447
607002.009	57.518	156.164	864.267	-2860.129	1623.333	2975.762	1728.833	1462.400
607002.017	69.141	165.999	872.314	-2861.321	1629.889	2979.934	1741.946	1463.294
607002.025	48.578	156.164	838.041	-2859.831	1605.749	2983.510	1730.025	1470.149
607002.033	55.134	170.469	840.724	-2837.479	1607.835	2980.530	1739.860	1467.466
607002.041	68.545	177.324	869.334	-2823.472	1630.783	2985.299	1737.773	1469.851
607002.049	74.804	182.092	875.890	-2821.684	1635.253	2975.166	1729.727	1462.400
607002.057	79.274	180.304	870.228	-2817.810	1629.591	2982.616	1746.118	1466.274
607002.065	49.770	152.588	835.657	-2852.976	1605.749	2976.358	1727.641	1461.506
607002.073	55.730	163.317	844.300	-2849.996	1614.094	2963.543	1728.833	1451.373
607002.081	61.691	167.489	854.135	-2830.029	1615.882	2965.331	1726.448	1456.141
607002.089	56.326	161.529	849.068	-2822.876	1612.008	2952.814	1716.614	1453.161
607002.097	71.228	179.708	861.585	-2803.802	1616.180	2956.390	1727.343	1455.247
607002.105	60.797	169.277	848.770	-2814.531	1607.239	2952.218	1713.932	1457.334
607002.113	67.055	169.873	850.260	-2803.802	1600.683	2941.489	1718.402	1450.181
607002.121	56.922	164.509	839.829	-2814.531	1586.080	2941.489	1710.355	1451.373
607002.129	53.644	165.105	846.982	-2812.445	1586.080	2924.502	1697.838	1439.750
607002.137	62.883	170.469	848.472	-2801.716	1593.828	2916.455	1704.395	1430.511
607002.145	51.260	166.893	836.551	-2796.650	1586.974	2906.621	1686.811	1427.829
607002.153	64.373	174.642	849.366	-2781.153	1589.060	2895.892	1689.196	1419.187
607002.172	67.353	172.555	844.300	-2791.882	1580.715	2901.256	1690.388	1424.551
607002.180	60.797	174.642	840.127	-2787.709	1581.609	2896.488	1682.937	1422.465
607002.188	79.572	191.629	863.969	-2761.781	1589.656	2903.640	1697.540	1428.723
607002.196	69.439	178.516	848.770	-2774.596	1587.570	2900.064	1684.427	1430.214
607002.204	73.612	177.324	852.644	-2765.656	1586.676	2885.163	1684.129	1420.677
607002.212	66.757	163.913	846.684	-2779.961	1573.563	2887.249	1681.149	1424.551
607002.220	57.220	172.555	832.379	-2769.828	1560.450	2878.606	1671.016	1420.081
607002.228	65.863	184.178	838.041	-2740.323	1564.324	2882.779	1679.957	1418.292
607002.236	57.518	169.277	823.736	-2759.099	1558.661	2888.441	1673.102	1423.359
607002.244	75.102	176.430	847.876	-2755.225	1569.688	2886.951	1685.917	1424.253
607002.252	63.777	166.595	835.061	-2762.973	1558.363	2888.441	1682.639	1424.849
607002.260	61.095	171.065	836.551	-2751.052	1553.893	2875.030	1667.738	1416.802
607002.268	73.612	181.198	849.962	-2713.800	1555.085	2874.136	1676.679	1414.716
607002.276	59.009	164.807	829.995	-2731.979	1538.992	2864.003	1662.672	1408.458
607002.284	64.671	171.661	835.955	-2724.528	1539.290	2855.658	1668.930	1403.391
607002.292	55.730	166.893	824.034	-2737.045	1532.733	2860.129	1668.334	1409.650
607002.300	54.836	172.257	823.140	-2728.999	1527.667	2841.949	1652.837	1398.921
607002.308	70.035	182.688	832.677	-2700.388	1533.329	2843.440	1660.883	1401.901
607002.316	64.373	175.238	833.571	-2707.541	1537.204	2838.373	1646.578	1404.881
607002.324	75.102	180.304	845.492	-2693.832	1536.012	2816.320	1647.472	1391.768
607002.332	72.718	178.516	838.935	-2703.965	1531.541	2807.081	1640.320	1392.662
607002.340	72.420	187.159	838.637	-2683.699	1522.303	2791.285	1627.803	1381.338
607002.348	82.552	199.974	845.492	-2657.771	1525.283	2786.219	1633.167	1376.271
607002.356	66.757	178.218	825.226	-2672.970	1516.640	2780.259	1614.988	1376.271
607002.364	71.526	180.602	833.273	-2664.626	1508.892	2772.808	1622.140	1369.417
607002.372	70.035	178.516	833.571	-2669.394	1503.825	2780.259	1624.525	1373.589
607002.380	67.055	181.198	829.697	-2673.864	1504.123	2777.576	1619.160	1371.205
607002.388	79.572	188.649	840.724	-2659.559	1501.739	2787.411	1633.763	1377.165
607002.392	63.479	169.873	817.776	-2661.347	1501.441	2779.961	1613.498	1372.099
607002.400	66.757	178.218	815.690	-2646.446	1503.527	2767.146	1613.796	1362.264
607002.408	59.903	168.085	818.968	-2654.493	1489.520	2772.212	1612.604	1371.205
607002.416	47.684	157.654	806.153	-2664.626	1476.705	2761.781	1603.663	1364.648
607002.424	58.711	168.383	815.094	-2638.400	1476.705	2758.801	1609.623	1361.668
607002.432	71.526	181.496	826.716	-2617.538	1489.520	2754.033	1594.722	1362.264
607002.440	79.572	192.523	829.399	-2599.955	1494.288	2740.323	1596.212	1350.939
607002.448	57.220	167.489	803.769	-2618.134	1470.447	2737.343	1587.570	1349.747
607002.456	52.154	159.740	796.616	-2628.863	1466.572	2727.210	1581.013	1345.873
607002.464	67.353	166.595	805.855	-2619.922	1463.890	2727.509	1592.636	1346.767
607002.472	62.585	165.403	805.855	-2613.664	1458.526	2726.615	1584.292	1348.853
607002.480	74.208	174.642	823.438	-2593.100	1477.003	2718.568	1588.762	1340.807
607002.488	60.201	156.164	799.000	-2594.888	1461.208	2716.482	1579.821	1341.104
607002.496	57.817	143.647	778.139	-2607.107	1448.393	2703.071	1570.284	1334.548
607002.504	72.420	151.396	788.271	-2584.755	1456.738	2700.984	1577.735	1330.972
607002.512	57.220	137.687	785.887	-2601.445	1448.393	2692.342	1560.748	1326.799
607002.520	63.479	146.329	799.000	-2580.285	1446.307	2681.613	1562.238	1319.647
607002.528	61.095	144.839	789.166	-2577.901	1440.942	2686.679	1560.748	1322.627
607002.536	59.903	139.177	782.907	-2573.729	1451.671	2677.739	1553.297	1318.157
607002.544	66.757	140.071	777.841	-2567.172	1456.439	2675.354	1558.661	1314.580
607002.552	49.770	123.680	753.999	-2584.159	1444.519	2665.818	1542.270	1309.514
607002.560	59.605	127.554	774.562	-2566.278	1446.903	2656.877	1549.423	1304.448
607002.568	56.922	128.150	771.284	-2565.384	1437.664	2659.559	1544.952	1306.534
607002.576	55.730	132.322	769.198	-2557.635	1443.028	2650.022	1534.224	1302.660
607002.584	65.863	135.303	777.245	-2550.483	1460.016	2651.513	1542.866	1302.958
607002.592	60.797	135.601	768.304	-2547.801	1454.949	2651.513	1536.012	1306.832
607002.600	81.360	160.038	782.907	-2511.442	1461.208	2644.658	1545.548	1302.361
607002.608	62.585	132.322	764.132	-2526.045	1442.730	2643.168	1536.608	1303.852
607002.628	35.465	105.202	747.740	-2552.569	1428.127	2625.585	1520.216	1292.825
607002.636	73.910	144.243	772.774	-2510.846	1457.036	2622.604	1528.859	1288.056
607002.644	73.910	139.177	767.708	-2507.865	1458.824	2619.624	1519.620	1288.354
607002.652	75.400	150.204	764.728	-2481.639	1446.605	2606.511	1517.832	1275.837
607002.660	66.459	139.177	753.701	-2478.957	1439.452	2611.280	1516.640	1281.500
607002.668	61.691	129.044	749.528	-2490.878	1441.240	2599.955	1509.488	1278.520
607002.676	66.459	132.024	741.780	-2489.090	1439.154	2603.233	1520.515	1280.606
607002.684	47.088	109.375	727.773	-2507.269	1417.995	2591.312	1499.057	1274.347
607002.692	55.730	126.958	743.866	-2489.984	1425.743	2576.113	1499.355	1264.214
607002.700	50.664	125.766	729.561	-2470.314	1423.955	2584.755	1502.037	1270.771
607002.708	55.134	129.938	732.839	-2457.500	1427.233	2576.709	1496.971	1266.897
607002.716	64.671	135.005	738.800	-2445.579	1429.915	2575.219	1504.123	1264.811
607002.724	46.790	112.057	720.322	-2461.374	1418.591	2566.874	1487.136	1265.407
607002.732	57.518	125.766	730.455	-2460.480	1417.100	2558.231	1489.818	1260.936
607002.740	53.644	130.534	723.004	-2445.877	1409.650	2563.894	1488.030	1268.387
607002.748	51.558	127.256	725.687	-2433.956	1415.908	2548.099	1475.811	1255.870
607002.756	57.518	130.236	726.879	-2440.512	1416.206	2548.396	1486.540	1252.890
607002.764	36.955	115.335	699.759	-2453.923	1395.047	2537.370	1466.572	1249.313
607002.772	52.452	130.236	723.600	-2406.835	1406.968	2519.488	1465.380	1234.710
607002.780	48.280	119.805	718.534	-2407.730	1403.391	2524.555	1462.400	1237.989
607002.788	42.319	113.845	698.566	-2419.651	1390.278	2513.528	1453.757	1231.432
607002.796	52.154	123.382	713.766	-2413.094	1389.980	2516.210	1465.082	1232.922
607002.804	43.809	116.229	708.997	-2419.054	1389.682	2510.250	1450.181	1234.114
607002.812	58.413	133.216	723.302	-2377.927	1392.365	2498.329	1455.247	1226.962
607002.820	55.730	138.581	712.276	-2361.238	1391.172	2506.673	1457.632	1236.200
607002.828	52.750	134.408	707.209	-2378.225	1387.000	2496.242	1451.373	1235.306
607002.836	59.009	135.899	701.845	-2366.304	1382.232	2501.309	1460.314	1235.604
607002.844	43.213	112.653	698.268	-2386.272	1367.032	2485.514	1439.452	1226.366
607002.832	50.664	120.997	710.189	-2366.900	1370.311	2466.738	1436.472	1211.166
607002.840	50.664	124.574	704.527	-2348.721	1367.331	2468.526	1433.790	1217.127
607002.848	54.240	137.091	708.997	-2338.588	1368.523	2456.904	1425.445	1210.570
607002.856	55.134	140.667	701.845	-2327.263	1360.178	2455.413	1431.108	1207.292
607002.864	44.107	112.951	683.665	-2348.423	1344.383	2450.943	1420.975	1211.762
607002.872	49.770	122.786	688.434	-2330.244	1345.277	2437.830	1421.273	1200.438
607002.880	51.260	135.601	692.904	-2315.044	1350.045	2437.830	1416.802	1204.014
607002.888	43.213	126.660	682.175	-2320.707	1333.356	2417.862	1402.795	1192.093
607002.896	47.684	122.786	686.347	-2314.746	1327.097	2419.948	1410.246	1192.689
607002.904	34.571	106.096	672.340	-2321.899	1324.415	2418.458	1399.219	1195.669
607002.912	26.524	107.586	656.545	-2311.766	1312.494	2407.432	1400.113	1185.834
607002.920	48.578	128.448	684.857	-2276.599	1316.965	2399.683	1390.278	1180.470
607002.928	62.585	145.733	700.057	-2258.718	1320.243	2388.954	1384.020	1173.317
607002.936	79.870	165.999	704.527	-2236.366	1325.905	2404.451	1403.391	1183.748
607002.944	70.035	151.992	689.626	-2239.346	1311.898	2406.538	1396.835	1190.007
607002.952	71.228	143.647	688.732	-2233.386	1300.573	2388.358	1397.729	1175.404
607002.960	54.538	126.660	669.658	-2239.346	1279.712	2383.888	1386.404	1175.106
607002.968	52.750	142.157	663.698	-2230.406	1269.281	2366.304	1372.397	1164.973
607002.976	61.989	146.627	676.811	-2203.584	1284.480	2366.603	1380.742	1163.483
607002.984	48.280	124.872	662.506	-2221.763	1273.751	2366.006	1370.907	1166.165
607002.992	50.068	131.428	656.545	-2215.803	1264.811	2352.297	1371.801	1154.840
607003.000	44.107	126.064	648.499	-2205.372	1257.658	2358.556	1368.523	1159.012
607003.008	42.915	119.805	651.777	-2210.438	1252.592	2346.933	1359.284	1150.668
607003.016	46.492	125.468	651.479	-2207.160	1244.843	2345.443	1365.244	1147.985
607003.024	34.571	117.123	639.558	-2197.325	1236.200	2345.443	1351.833	1151.264
607003.032	42.617	125.170	644.624	-2191.663	1239.479	2341.568	1361.966	1148.283
607003.040	28.908	102.818	625.849	-2205.074	1231.134	2346.933	1361.370	1151.860
607003.048	28.312	106.990	629.723	-2190.173	1221.597	2326.369	1347.065	1136.661
607003.068	38.743	126.362	643.134	-2155.900	1219.809	2313.256	1344.383	1126.826
607003.076	21.458	100.732	622.272	-2174.973	1206.398	2291.500	1322.925	1116.395
607003.084	33.379	109.673	633.895	-2168.119	1211.464	2272.427	1324.415	1107.752
607003.092	33.379	123.978	627.935	-2149.045	1209.080	2263.486	1313.090	1106.262
607003.100	38.147	131.428	631.213	-2131.462	1203.418	2252.162	1307.428	1101.196
607003.108	55.134	137.091	642.240	-2112.091	1206.696	2253.354	1316.667	1105.070
607003.116	43.809	120.997	633.299	-2118.051	1195.967	2240.539	1296.401	1099.408
607003.124	46.194	127.554	630.617	-2118.051	1198.053	2226.233	1296.997	1089.871
607003.132	41.723	120.997	633.299	-2118.647	1190.901	2230.406	1296.997	1096.427
607003.140	43.213	126.958	631.511	-2092.719	1185.536	2212.226	1285.374	1088.679
607003.148	53.942	139.177	634.789	-2082.884	1178.980	2207.160	1290.143	1085.103
607003.156	41.425	132.322	626.147	-2079.606	1161.695	2195.239	1270.771	1079.142
607003.164	59.307	145.733	644.624	-2057.552	1177.192	2188.980	1278.818	1071.692
607003.172	52.750	134.408	634.789	-2066.195	1176.000	2187.192	1270.771	1074.374
607003.180	45.300	130.832	620.186	-2057.552	1167.059	2167.523	1259.148	1063.347
607003.188	49.174	127.554	622.272	-2048.314	1159.608	2165.139	1264.214	1059.175
607003.196	38.743	121.295	617.206	-2058.446	1146.495	2155.304	1247.525	1059.473
607003.204	58.115	152.290	629.723	-2026.856	1147.389	2139.807	1250.505	1049.936
607003.212	49.472	139.773	613.630	-2016.723	1140.535	2137.721	1240.075	1050.234
607003.220	47.982	137.091	619.292	-2025.366	1141.131	2128.184	1235.306	1045.465
607003.228	59.605	141.263	641.942	-2004.504	1142.025	2119.839	1235.902	1038.313
607003.236	45.598	125.766	624.061	-2003.610	1130.104	2102.256	1216.233	1032.948
607003.244	50.068	133.216	616.312	-1993.179	1117.289	2087.653	1219.809	1021.028
607003.252	45.300	127.852	604.987	-2003.908	1116.395	2088.249	1214.147	1023.412
607003.260	49.472	135.601	619.590	-1991.093	1126.528	2080.500	1209.378	1017.153
607003.268	57.518	137.985	620.782	-1969.635	1123.548	2084.970	1221.001	1023.114
607003.276	42.021	109.375	598.729	-1982.152	1100.004	2085.865	1207.590	1028.180
607003.284	42.617	107.884	592.768	-1970.530	1097.322	2084.672	1214.147	1021.326
607003.288	43.511	109.673	591.874	-1970.530	1102.686	2093.017	1213.551	1027.882
607003.296	37.849	99.838	586.808	-1970.530	1095.533	2079.606	1204.908	1021.326
607003.304	44.703	101.626	588.298	-1958.609	1091.957	2076.626	1209.974	1016.259
607003.312	38.743	87.917	587.404	-1970.232	1091.361	2069.473	1194.477	1012.683
607003.320	49.770	96.560	599.623	-1956.522	1097.918	2060.532	1201.928	1008.213
607003.328	47.088	95.963	580.847	-1946.390	1095.533	2065.897	1204.312	1018.941
607003.336	44.107	97.752	579.953	-1939.535	1092.851	2051.890	1195.669	1007.318
607003.344	44.703	102.520	579.953	-1929.998	1090.467	2049.804	1197.755	1005.828
607003.352	36.061	90.301	564.754	-1933.277	1088.679	2042.353	1181.066	1005.828
607003.360	52.750	98.348	581.741	-1912.713	1098.514	2025.366	1182.258	991.523
607003.368	44.107	83.745	574.589	-1920.462	1087.785	2026.558	1176.894	993.013
607003.376	41.127	83.745	573.993	-1915.395	1089.871	2011.657	1169.741	985.265
607003.384	50.366	97.454	577.271	-1902.580	1095.235	2007.782	1175.106	982.285
607003.392	36.955	85.533	558.198	-1904.368	1088.381	1999.438	1159.310	978.112
607003.400	45.002	92.089	565.648	-1900.494	1091.659	1994.371	1168.847	974.834
607003.408	41.425	88.215	557.005	-1892.448	1085.699	2001.226	1166.463	984.073
607003.416	41.723	87.619	547.171	-1871.586	1087.189	1983.047	1156.926	970.364
607003.424	54.836	93.877	564.158	-1860.261	1097.918	1986.921	1167.059	973.642
607003.432	45.598	91.791	563.264	-1878.142	1091.063	1980.960	1150.072	973.046
607003.440	55.134	104.904	568.330	-1852.512	1091.361	1957.715	1146.495	958.145
607003.448	49.770	98.050	555.813	-1854.002	1083.911	1958.907	1140.833	957.847
607003.456	41.425	88.811	545.979	-1846.850	1074.672	1949.370	1137.257	951.290
607003.464	57.817	104.308	555.217	-1812.279	1097.322	1948.476	1141.727	953.674
607003.472	63.777	101.328	562.072	-1812.577	1105.666	1945.496	1128.912	955.164
607003.480	62.883	99.838	562.072	-1819.432	1101.792	1928.508	1130.104	943.542
607003.488	42.617	84.043	545.383	-1843.274	1085.103	1920.462	1117.587	937.879
607003.496	37.849	92.685	529.885	-1836.717	1069.307	1900.196	1103.282	925.660
607003.504	45.896	98.944	528.395	-1804.233	1065.731	1901.686	1109.242	926.852
607003.508	36.955	79.572	540.316	-1800.060	1067.221	1893.640	1092.255	925.064
607003.516	49.472	89.407	552.535	-1795.590	1077.950	1886.189	1100.600	919.700
607003.524	44.107	85.831	538.528	-1802.444	1077.652	1891.553	1095.533	926.852
607003.532	43.809	93.877	532.568	-1789.927	1072.884	1872.182	1084.208	914.931
607003.540	55.432	101.030	544.488	-1776.516	1074.672	1872.182	1091.957	914.633
607003.548	40.829	96.560	524.223	-1770.854	1061.261	1866.818	1079.440	915.527
607003.556	44.107	98.944	521.541	-1765.490	1048.446	1858.175	1086.593	908.673
607003.564	25.630	70.333	506.938	-1780.093	1029.968	1848.638	1070.499	906.587
607003.572	22.054	64.373	508.130	-1775.622	1029.074	1823.604	1052.022	890.791
607003.580	28.312	72.420	509.620	-1759.529	1032.352	1826.882	1059.473	894.368
607003.588	24.438	73.016	495.911	-1748.204	1022.816	1824.796	1050.830	893.176
607003.596	46.790	96.858	517.070	-1728.237	1030.564	1817.644	1060.069	888.705
607003.604	37.253	84.043	512.600	-1739.860	1021.922	1821.220	1054.406	895.858
607003.612	28.610	73.016	506.938	-1738.370	1010.895	1802.742	1042.783	883.937
607003.620	23.246	71.526	497.699	-1733.899	997.484	1797.378	1043.379	880.063
607003.628	18.179	73.612	485.182	-1734.197	994.802	1786.351	1026.094	876.784
607003.636	37.551	82.552	508.428	-1703.501	1005.232	1771.748	1032.054	865.757
607003.644	28.908	72.718	493.228	-1704.693	997.782	1775.026	1027.584	867.248
607003.652	27.418	77.188	484.884	-1704.991	986.159	1761.615	1018.643	859.797
607003.660	39.935	90.301	505.447	-1683.235	989.139	1766.682	1029.074	865.161
607003.668	31.590	83.148	500.679	-1684.725	975.132	1762.211	1015.663	864.267
607003.676	40.829	90.599	495.315	-1657.903	967.979	1757.443	1027.286	863.373
607003.684	14.305	58.711	465.512	-1691.282	947.118	1765.192	1025.498	873.804
607003.692	34.571	79.274	486.672	-1678.467	977.516	1738.965	1008.213	856.221
607003.700	44.107	89.407	489.652	-1664.460	983.477	1724.362	999.868	842.810
607003.708	38.147	79.274	502.467	-1674.891	985.563	1712.740	978.112	836.849
607003.716	48.280	92.685	514.388	-1669.526	998.378	1703.501	982.881	829.697
607003.724	47.982	90.003	512.004	-1683.533	1003.146	1707.077	977.516	835.657
607003.743	51.558	90.301	529.587	-1679.063	1012.385	1690.686	969.768	827.909
607003.751	47.684	83.148	521.541	-1689.196	1007.617	1681.447	967.085	824.034
607003.759	34.571	72.718	502.765	-1702.011	989.735	1675.189	953.078	824.034
607003.767	42.021	82.850	509.620	-1683.235	986.159	1671.016	962.615	818.670
607003.775	31.888	71.228	500.679	-1686.215	983.477	1675.487	957.847	823.438
607003.783	31.292	70.632	496.507	-1672.804	984.073	1658.201	950.396	814.795
607003.791	37.849	79.572	502.169	-1660.883	974.536	1657.903	959.635	815.094
607003.799	22.054	57.518	485.182	-1671.314	953.674	1646.876	944.138	810.325
607003.807	24.736	59.605	483.096	-1657.605	951.886	1630.783	941.753	799.000
607003.815	18.477	56.028	479.817	-1662.672	942.051	1631.677	931.621	799.894
607003.823	19.372	58.711	482.202	-1653.731	940.263	1613.796	917.911	787.973
607003.831	28.610	68.843	481.009	-1631.379	927.448	1618.862	926.852	792.742
607003.839	8.047	50.664	462.830	-1638.532	896.752	1604.557	905.097	783.503
607003.847	15.497	50.962	475.049	-1636.446	908.971	1587.272	911.355	770.688
607003.855	17.285	50.366	469.387	-1638.234	920.594	1594.722	912.547	779.629
607003.863	21.756	61.095	477.731	-1611.114	916.123	1581.907	904.799	770.688
607003.871	31.590	67.949	483.990	-1589.358	914.037	1585.782	916.719	775.456
607003.879	1.788	38.743	447.333	-1606.345	885.427	1574.159	898.242	771.284
607003.887	29.802	76.890	471.175	-1574.159	894.368	1563.728	906.885	763.237
607003.895	32.187	78.082	467.896	-1573.563	883.341	1568.198	902.116	768.006
607003.903	25.630	71.526	462.532	-1556.873	871.420	1553.297	891.387	759.959
607003.911	24.438	64.671	455.678	-1546.443	863.373	1556.873	899.434	763.833
607003.919	5.364	54.240	426.471	-1564.920	844.002	1549.721	882.447	758.469
607003.927	20.862	66.459	449.419	-1542.568	848.174	1536.012	890.195	747.144
607003.935	17.583	58.115	453.591	-1551.509	841.320	1536.310	880.957	749.528
607003.943	16.689	58.115	451.505	-1547.635	841.618	1517.534	869.930	742.674
607003.951	23.842	64.373	447.333	-1510.382	838.339	1522.303	878.870	748.634
607003.959	14.603	54.538	428.259	-1513.958	825.822	1515.150	863.075	746.846
607003.962	28.610	71.228	448.525	-1500.845	828.505	1501.143	865.459	734.627
607003.970	14.007	54.538	433.922	-1503.825	810.921	1496.375	853.539	729.263
607003.978	6.557	45.896	418.127	-1506.507	801.086	1477.003	843.406	718.236
607003.986	14.007	47.684	434.518	-1501.441	796.616	1479.983	850.260	720.322
607003.994	3.874	37.253	428.557	-1509.190	795.126	1474.321	837.147	719.130
607004.002	25.332	69.141	441.372	-1477.003	810.027	1468.658	850.856	719.726
607004.010	22.352	63.181	437.498	-1459.718	794.530	1465.976	838.339	720.024
607004.018	23.842	63.777	432.730	-1448.095	786.781	1451.373	828.803	711.679
607004.026	25.034	61.989	427.067	-1443.625	783.205	1449.883	834.465	710.487
607004.034	14.901	57.817	419.915	-1450.181	772.476	1441.836	821.650	706.911
607004.042	29.504	73.612	436.306	-1429.617	782.907	1434.684	830.591	702.441
607004.050	16.391	52.750	419.021	-1434.386	770.986	1438.260	820.756	702.143
607004.058	15.795	55.432	420.809	-1424.849	764.430	1424.551	815.094	694.692
607004.066	22.948	64.373	421.703	-1415.014	758.767	1430.511	825.822	701.845
607004.074	17.583	57.817	411.868	-1406.074	748.932	1423.657	813.007	700.653
607004.082	27.418	60.201	425.279	-1395.047	750.422	1403.391	811.219	687.242
607004.090	8.941	39.041	396.669	-1405.478	736.415	1401.305	795.722	688.732
607004.098	12.219	41.723	402.629	-1393.855	740.588	1393.557	796.318	683.665
607004.106	-0.894	18.775	387.132	-1409.352	729.561	1403.093	808.239	689.924
607004.114	-2.682	19.670	386.536	-1395.643	720.322	1391.172	789.762	681.877
607004.122	34.571	59.307	416.338	-1341.701	731.051	1378.655	798.404	672.936
607004.130	28.908	50.068	402.331	-1331.866	717.938	1387.894	799.596	684.559
607004.138	36.657	54.240	399.649	-1313.090	714.660	1381.636	804.365	682.771
607004.146	42.915	59.307	397.265	-1290.143	702.143	1378.953	809.729	678.301
607004.154	32.187	46.790	384.748	-1285.374	691.414	1368.821	795.424	674.427
607004.162	35.465	43.213	383.556	-1273.453	687.242	1353.025	796.318	662.506
607004.170	11.325	11.921	350.475	-1302.063	673.831	1355.410	786.483	668.168
607004.178	11.325	23.842	351.667	-1295.507	670.552	1338.720	780.523	656.843
607004.200	18.775	31.292	358.820	-1285.076	672.638	1336.336	787.079	655.353
607004.208	11.027	18.775	352.263	-1285.076	674.129	1329.482	771.284	652.671
607004.216	20.266	29.504	358.522	-1256.764	682.771	1319.945	777.841	646.114
607004.224	13.411	27.418	342.131	-1255.572	676.215	1323.223	770.092	651.479
607004.232	9.537	22.948	335.574	-1256.168	664.592	1310.706	760.555	641.942
607004.240	15.199	21.756	339.150	-1256.168	661.910	1308.620	765.026	642.836
607004.248	-1.788	6.258	327.826	-1269.877	660.121	1285.672	740.588	626.147
607004.256	7.749	16.093	344.813	-1243.353	674.427	1280.010	747.740	619.590
607004.264	5.662	14.901	336.468	-1235.008	677.109	1283.586	739.098	627.041
607004.272	5.662	23.544	326.931	-1228.452	668.466	1272.261	736.415	623.167
607004.280	8.941	20.564	306.070	-1224.875	652.075	1270.771	744.760	623.167
607004.288	-5.960	-5.066	312.924	-1240.373	658.035	1259.744	727.177	617.504
607004.296	10.729	22.650	336.468	-1209.974	663.102	1251.996	736.415	609.458
607004.304	6.557	25.332	320.971	-1198.649	652.671	1255.274	727.177	611.842
607004.312	8.941	15.795	329.614	-1200.140	666.678	1237.392	721.216	602.603
607004.320	9.239	19.670	327.528	-1189.113	666.380	1239.181	724.494	604.987
607004.328	-2.086	10.729	312.626	-1198.649	662.506	1232.028	711.083	603.199
607004.336	16.093	26.226	322.163	-1169.145	664.592	1227.558	725.091	599.027
607004.344	4.768	17.881	315.011	-1168.251	656.545	1228.452	713.170	600.219
607004.352	6.258	25.034	323.355	-1164.675	669.360	1210.868	702.739	590.384
607004.360	8.643	24.438	322.163	-1159.906	664.294	1211.166	707.507	590.980
607004.368	0.596	18.775	312.030	-1155.436	655.055	1202.822	694.096	587.106
607004.376	4.172	27.120	313.222	-1146.197	649.095	1188.219	694.990	575.185
607004.384	0.894	22.948	306.070	-1142.025	634.193	1187.026	685.453	576.079
607004.392	5.662	21.160	312.924	-1127.422	646.710	1172.721	679.493	567.734
607004.400	14.603	36.657	320.077	-1110.435	657.439	1174.212	685.453	570.416
607004.408	5.066	33.975	319.779	-1109.242	649.393	1162.589	667.870	566.244
607004.416	22.948	52.750	337.660	-1082.122	653.267	1157.820	679.195	561.476
607004.421	37.551	61.691	340.044	-1072.288	653.565	1161.695	674.427	566.244
607004.429	56.922	85.831	360.608	-1045.167	656.843	1143.813	665.188	554.025
607004.437	106.692	130.534	402.927	-996.292	668.466	1150.668	677.407	560.284
607004.445	146.925	173.450	438.690	-948.012	663.698	1147.985	669.658	562.370
607004.453	207.722	242.293	495.613	-879.169	691.414	1147.985	684.559	561.774
607004.461	274.479	317.991	559.092	-815.392	738.204	1150.370	678.897	566.840
607004.469	315.607	356.436	593.364	-788.271	745.356	1133.382	672.340	556.409
607004.477	350.773	396.073	629.425	-731.051	742.674	1130.700	673.831	558.198
607004.485	368.953	426.769	637.472	-706.613	745.952	1127.422	662.804	562.370
607004.493	413.060	472.665	698.864	-672.936	805.557	1125.634	675.917	561.476
607004.501	409.484	461.340	703.931	-692.606	819.862	1127.124	664.592	564.158
607004.509	397.265	440.180	704.229	-703.931	804.663	1106.858	652.075	545.681
607004.517	371.039	415.742	658.333	-734.329	763.833	1102.388	652.969	544.786
607004.525	333.786	368.655	669.062	-796.616	771.880	1085.103	626.445	533.164
607004.533	305.772	330.806	656.545	-813.603	802.577	1067.519	622.570	518.858
607004.541	233.054	262.856	535.846	-867.248	763.536	1072.884	616.610	527.203
607004.549	238.121	258.088	573.099	-883.043	733.733	1066.625	621.378	526.905
607004.557	213.683	222.623	555.515	-897.646	707.209	1057.386	620.782	520.051
607004.565	157.654	171.661	491.142	-914.335	684.261	1049.340	602.007	516.176
607004.573	135.005	149.012	462.830	-931.621	666.082	1045.465	607.967	513.196
607004.581	98.646	113.547	411.868	-972.152	631.511	1047.552	602.007	520.349
607004.589	68.843	92.387	375.211	-980.198	603.795	1028.776	591.874	505.447
607004.597	54.836	75.698	374.317	-981.391	596.344	1029.372	598.729	504.255
607004.605	29.504	52.452	354.350	-999.272	576.377	1017.749	579.655	497.699
607004.613	15.795	40.233	324.845	-995.398	546.873	1013.875	585.914	493.526
607004.621	-12.517	19.372	275.373	-1018.047	521.839	1021.028	582.933	503.659
607004.629	-15.199	14.901	278.950	-1013.577	522.435	1006.126	576.973	495.613
607004.637	-10.133	8.047	311.136	-1006.126	526.905	1005.530	577.569	493.526
607004.624	-18.775	-3.576	304.282	-1009.405	516.474	1001.656	567.436	492.632
607004.632	-14.007	7.153	298.917	-995.398	505.447	986.159	572.205	484.884
607004.640	-33.975	-14.901	275.373	-1016.259	479.817	976.920	556.409	481.904
607004.648	-43.213	-23.544	257.492	-1015.961	459.552	957.847	549.555	466.704
607004.656	-47.088	-23.246	245.869	-1001.060	447.035	957.251	549.555	464.320
607004.664	-52.154	-28.312	247.955	-1006.126	438.392	950.694	534.654	459.552
607004.672	-36.657	-16.689	267.327	-990.033	446.439	941.455	541.210	453.591
607004.680	-45.300	-26.524	265.539	-995.696	439.882	944.436	532.568	461.638
607004.688	-39.637	-16.689	271.797	-986.159	428.855	936.091	531.971	458.658
607004.696	-33.379	-13.709	269.413	-964.701	426.471	947.714	544.190	464.916
607004.704	-50.366	-24.438	243.187	-971.556	409.186	936.091	529.289	460.446
607004.712	-37.551	-10.431	241.697	-953.078	404.716	930.429	539.124	457.168
607004.720	-37.849	-19.670	255.704	-956.058	401.437	935.793	533.760	463.724
607004.728	-33.677	-9.239	263.751	-950.396	396.967	916.421	526.011	449.121
607004.736	-32.485	-7.153	269.711	-943.542	395.477	909.865	523.627	447.333
607004.744	-47.088	-28.014	253.320	-957.251	387.132	898.242	503.063	438.988
607004.752	-39.637	-21.756	244.975	-945.330	371.933	893.176	514.388	433.922
607004.760	-54.538	-33.379	214.875	-938.773	334.382	904.500	512.004	447.333
607004.768	-24.140	8.345	261.366	-901.222	372.827	891.089	505.745	437.498
607004.776	7.451	42.915	298.321	-866.055	404.716	892.878	511.706	437.796
607004.784	-2.980	28.312	281.334	-869.632	396.073	882.447	495.911	433.326
607004.792	2.086	25.630	294.447	-873.804	385.940	873.506	502.467	427.365
607004.800	-14.007	11.921	274.777	-881.255	370.741	872.910	492.632	430.048
607004.808	-27.120	10.729	250.340	-873.506	355.244	854.135	486.076	416.338
607004.816	-18.775	9.835	255.704	-870.824	349.581	861.585	497.997	421.405
607004.824	-24.438	9.239	249.147	-862.479	351.965	856.221	484.884	419.319
607004.832	-14.305	16.689	253.618	-847.876	355.542	851.750	497.401	417.233
607004.840	-17.285	7.451	255.406	-852.942	345.707	853.539	489.354	424.385
607004.845	-6.855	19.670	261.962	-836.551	347.793	840.425	485.778	414.252
607004.853	-8.941	22.650	256.896	-830.293	349.879	844.896	491.142	418.723
607004.861	-24.140	10.729	243.485	-827.014	331.402	836.253	475.347	416.040
607004.869	-16.391	10.729	249.445	-821.650	328.124	827.909	480.711	406.504
607004.877	-31.590	-5.066	237.823	-837.743	325.441	826.120	468.791	402.629
607004.885	-22.948	16.093	242.591	-808.239	334.680	813.007	465.810	394.881
607004.893	-12.517	19.372	245.273	-805.855	340.044	812.709	466.406	397.265
607004.901	-18.477	8.643	245.571	-814.795	330.210	804.961	452.995	396.073
607004.909	-7.153	19.968	256.896	-800.788	323.653	802.875	467.598	393.689
607004.917	-18.775	14.305	242.889	-792.742	322.759	808.835	465.512	399.649
607004.925	-13.113	19.670	246.465	-769.198	331.402	794.828	460.148	388.026
607004.933	-21.160	8.345	225.306	-779.033	321.269	788.867	460.744	384.450
607004.941	-31.590	2.086	201.762	-788.569	309.050	768.900	438.094	375.211
607004.949	-10.431	11.921	233.352	-767.112	318.885	759.959	441.372	371.337
607004.957	-21.160	-11.027	231.564	-778.735	317.395	770.688	437.796	379.384
607004.965	-36.061	-24.438	218.749	-790.060	305.474	762.939	437.498	370.443
607004.973	-25.034	-11.027	215.471	-766.814	308.752	765.622	445.843	372.827
607004.981	-12.517	-5.662	212.789	-736.713	311.434	748.038	426.471	361.204
607004.989	-1.788	11.027	224.411	-714.064	313.520	739.992	433.624	354.052
607004.997	-5.662	6.557	215.173	-700.057	310.540	742.376	425.875	359.416
607005.005	-0.596	2.980	212.491	-686.049	308.752	730.753	426.471	351.965
607005.013	-2.086	0.894	206.232	-684.857	303.090	735.521	436.306	356.138
607005.021	-29.802	-31.888	179.708	-715.256	284.612	720.322	419.319	345.409
607005.029	-24.140	-25.630	181.794	-716.150	288.486	712.276	428.557	339.150
607005.037	-28.312	-25.630	179.708	-695.586	287.294	716.448	420.511	347.197
607005.045	-25.928	-22.948	174.940	-684.559	297.129	710.487	418.425	345.409
607005.053	-18.477	-13.411	173.748	-679.791	312.328	715.554	423.193	351.667
607005.061	-23.842	-19.073	176.132	-683.367	315.011	708.103	408.888	346.303
607005.082	-15.199	-11.921	190.139	-675.321	319.779	704.527	420.511	344.813
607005.090	-26.226	-22.948	175.536	-688.732	315.905	707.805	414.550	351.071
607005.098	-25.928	-23.544	171.065	-671.744	320.375	690.222	406.206	338.852
607005.106	-28.312	-31.292	163.019	-669.658	320.077	689.328	405.312	339.746
607005.114	-43.809	-39.339	146.925	-670.552	308.752	681.579	388.622	334.978
607005.122	-26.524	-24.140	155.866	-654.757	324.249	675.023	399.053	329.912
607005.130	-28.014	-19.670	164.211	-663.400	328.720	678.301	393.689	336.468
607005.138	-20.564	-16.987	175.834	-649.691	336.766	663.400	393.689	327.528
607005.146	-20.862	-20.564	170.171	-652.373	334.978	663.698	396.967	326.335
607005.154	-31.590	-19.968	153.482	-645.518	334.978	654.459	380.278	320.077
607005.162	-23.246	-14.901	156.760	-625.849	340.939	649.393	389.814	315.607
607005.170	-35.763	-29.504	144.243	-636.876	334.978	653.565	380.576	321.865
607005.178	-19.670	-6.855	168.383	-628.531	345.409	634.491	374.019	309.646
607005.186	-8.941	7.153	169.575	-612.736	355.244	638.962	379.384	312.328
607005.194	-18.775	-4.172	150.204	-613.332	351.965	631.809	366.271	309.944
607005.202	-8.345	11.027	165.999	-585.616	351.667	629.723	375.509	308.156
607005.210	-25.034	-12.815	146.627	-600.815	339.150	630.021	363.588	311.732
607005.218	-20.564	-8.047	148.714	-611.246	343.025	618.696	359.416	304.878
607005.226	-8.345	-0.298	158.548	-594.258	358.522	629.425	371.337	313.818
607005.234	-16.391	0.000	153.780	-586.212	355.542	621.974	362.396	310.838
607005.242	-4.470	17.583	169.575	-565.946	357.032	616.014	368.655	302.792
607005.250	-16.391	6.557	158.250	-571.013	352.263	614.524	354.648	305.474
607005.258	-16.689	5.066	151.694	-572.801	350.177	594.258	347.495	292.361
607005.266	-13.113	-0.596	151.694	-584.125	343.621	601.411	353.158	295.341
607005.274	-16.391	-8.345	147.521	-562.370	344.217	594.556	339.448	290.573
607005.282	3.576	19.968	171.661	-532.866	356.138	595.152	353.158	290.275
607005.290	-9.239	12.517	158.250	-545.383	343.919	592.768	336.468	290.573
607005.298	-13.411	14.603	139.475	-540.316	337.958	567.734	324.547	273.883
607005.304	-12.517	7.153	129.938	-539.124	340.044	567.436	326.037	273.585
607005.312	-7.749	6.557	142.455	-550.449	343.323	563.562	318.587	275.970
607005.320	13.113	32.187	175.536	-519.454	358.224	566.542	334.084	277.162
607005.328	-7.451	14.305	153.780	-525.713	346.005	566.840	319.779	275.970
607005.336	-3.278	23.842	158.548	-515.580	343.323	550.449	316.203	265.241
607005.344	1.490	29.206	158.250	-508.428	342.131	555.813	320.971	270.605
607005.352	-12.517	10.431	138.879	-513.196	323.355	545.383	307.858	265.241
607005.360	-5.662	10.729	139.773	-520.349	324.547	540.316	315.309	260.472
607005.368	-14.901	12.219	125.170	-515.580	324.547	538.528	298.619	261.664
607005.376	-5.960	25.630	143.051	-490.546	327.826	529.289	296.533	252.128
607005.384	-13.411	10.133	131.726	-502.765	320.375	533.164	301.599	256.896
607005.392	-15.497	7.153	137.389	-507.832	319.481	522.137	289.381	252.128
607005.400	16.391	39.637	163.913	-468.492	333.786	523.031	303.984	250.638
607005.408	13.113	37.253	153.780	-461.638	320.375	532.866	301.003	263.751
607005.416	15.497	52.154	148.714	-447.333	313.818	517.666	294.745	254.810
607005.424	11.623	37.253	147.521	-449.121	313.520	514.090	292.957	251.830
607005.432	-2.086	18.179	137.985	-469.685	300.109	504.255	275.970	244.975
607005.440	1.490	29.206	143.051	-464.022	294.447	488.758	274.181	231.564
607005.448	-11.027	19.073	130.236	-460.446	291.169	490.248	263.751	234.842
607005.456	-8.941	23.842	126.362	-457.168	286.698	483.096	271.201	231.862
607005.464	1.490	17.881	129.640	-452.399	294.149	499.189	285.506	247.061
607005.472	-3.874	22.948	120.699	-452.995	286.400	492.930	272.393	244.975
607005.480	4.768	33.081	123.084	-438.988	278.652	481.009	274.777	235.438
607005.488	-21.458	4.172	107.288	-457.168	268.519	475.645	256.896	233.054
607005.496	-38.743	-29.802	91.791	-489.056	247.955	463.128	257.790	223.219
607005.504	-25.630	1.788	97.752	-475.645	254.810	467.896	262.856	228.286
607005.512	-20.266	19.073	118.315	-434.816	245.273	452.697	239.909	219.643
607005.520	-17.583	11.921	116.825	-430.644	242.889	448.525	255.406	214.577
607005.539	-19.372	2.086	96.560	-433.624	241.101	447.929	237.823	217.557
607005.547	-27.418	-0.298	91.791	-438.392	231.564	438.988	239.015	212.789
607005.555	-13.411	19.073	129.640	-422.001	252.128	445.247	244.975	219.345
607005.563	-7.451	26.822	113.547	-412.464	235.438	443.757	237.823	218.749
607005.571	-2.384	39.935	88.811	-391.006	213.385	440.478	248.253	218.749
607005.579	22.054	65.863	122.488	-377.297	207.722	450.909	245.571	227.988
607005.587	72.122	105.202	167.489	-352.561	233.054	444.651	249.445	222.623
607005.595	142.753	174.940	264.645	-252.426	280.738	449.717	250.936	225.604
607005.603	162.721	214.875	284.612	-181.198	292.361	448.227	242.591	223.815
607005.611	215.471	258.088	326.931	-132.024	267.029	447.035	257.790	226.200
607005.619	256.598	296.235	370.443	-113.547	291.169	448.823	251.234	230.074
607005.627	308.156	364.482	445.545	-71.824	388.622	440.180	252.128	224.113
607005.635	323.355	381.470	458.658	-58.413	400.841	442.266	247.061	226.200
607005.643	328.124	375.807	491.142	-60.797	396.371	439.286	237.823	228.286
607005.651	351.965	388.026	516.474	-42.915	430.048	440.478	252.724	230.968
607005.659	316.203	351.667	482.798	-88.811	427.961	435.114	239.909	225.902
607005.667	303.090	335.872	474.453	-106.394	416.338	429.451	244.081	224.411
607005.675	277.758	299.513	454.783	-142.455	403.821	423.789	228.584	215.769
607005.683	244.081	266.731	413.954	-171.959	397.265	416.636	215.471	217.259
607005.691	221.729	247.657	380.576	-174.642	372.231	410.676	227.690	208.914
607005.699	196.695	202.954	385.642	-207.722	362.694	417.531	222.027	224.411
607005.707	160.038	166.595	336.766	-236.630	320.971	399.053	213.087	212.193
607005.715	128.150	142.753	284.016	-259.280	291.467	405.610	217.557	205.636
607005.723	102.818	118.017	271.499	-292.361	280.440	400.841	204.742	206.828
607005.731	78.380	93.877	241.101	-301.599	253.320	396.669	209.212	205.636
607005.739	60.499	73.016	231.862	-304.580	249.147	393.689	193.715	206.530
607005.747	57.518	73.910	206.530	-284.314	240.803	384.748	196.397	196.993
607005.755	17.583	38.445	171.363	-319.183	208.020	382.364	197.291	198.483
607005.760	-35.167	-19.372	135.303	-383.258	147.820	345.707	151.694	169.873
607005.768	-15.199	15.199	137.389	-351.965	165.105	351.965	176.430	173.151
607005.776	-21.160	16.391	122.488	-354.052	174.642	366.271	179.708	194.907
607005.784	-15.497	22.054	134.706	-335.872	149.906	361.204	174.046	193.417
607005.792	-9.239	25.928	148.416	-314.116	176.132	379.384	195.801	200.868
607005.800	-53.048	-10.133	75.698	-350.773	116.527	354.648	172.555	185.966
607005.808	-41.425	1.490	77.486	-343.025	103.116	354.648	182.986	202.060
607005.816	-61.691	-29.206	85.831	-382.662	90.301	329.316	148.714	173.450
607005.824	-48.578	-25.034	108.778	-377.893	129.640	327.229	174.344	159.442
607005.832	-55.134	-37.849	91.493	-383.854	104.606	325.143	163.615	167.191
607005.840	-63.777	-43.213	68.247	-382.960	84.341	293.851	115.633	142.455
607005.848	-40.233	-24.140	84.043	-365.078	64.969	288.785	126.064	139.177
607005.856	-52.452	-43.511	53.644	-376.999	36.359	311.434	153.780	165.105
607005.864	-17.583	-4.768	95.367	-336.766	87.321	336.766	199.080	194.311
607005.872	7.153	11.623	157.654	-328.124	138.283	323.057	163.615	161.231
607005.880	-20.266	-14.007	134.110	-335.872	112.951	303.984	139.177	156.164
607005.888	-8.941	-2.682	125.170	-317.991	49.770	295.937	142.455	145.137
607005.896	-23.246	-11.921	101.626	-331.402	39.935	290.275	127.256	136.197
607005.904	-11.921	-5.066	112.653	-330.806	80.764	297.427	156.760	144.839
607005.912	-7.451	-2.384	115.931	-323.653	47.088	302.196	164.807	144.839
607005.920	-27.418	-19.073	102.818	-345.707	36.061	281.930	118.613	138.581
607005.928	-20.862	-20.862	97.752	-344.217	48.280	284.016	134.110	138.581
607005.936	-40.233	-40.233	87.619	-352.859	33.975	289.679	132.322	149.310
607005.944	-44.703	-35.763	76.890	-354.946	-16.391	268.817	122.786	122.190
607005.952	-26.226	-26.524	99.540	-340.044	24.736	273.287	126.362	125.766
607005.960	-48.876	-46.492	72.420	-352.859	0.000	261.068	110.567	122.190
607005.968	-39.339	-38.743	74.208	-330.508	-22.352	267.327	131.726	131.428
607005.976	-43.511	-46.790	66.459	-334.680	-6.557	264.645	119.209	127.852
607005.978	-39.637	-40.233	63.777	-323.355	-5.960	252.128	124.276	115.633
607005.986	-46.790	-45.896	62.883	-334.978	-19.968	254.214	120.699	123.084
607005.994	-57.817	-51.260	56.922	-334.680	-39.339	244.379	107.884	115.931
607006.002	-51.856	-45.300	61.393	-325.441	-28.312	237.226	116.527	108.778
607006.010	-58.115	-57.220	57.518	-314.713	-19.670	245.571	105.798	122.488
607006.018	-46.492	-41.723	58.711	-296.533	-40.233	236.034	113.845	106.096
607006.026	-55.730	-51.260	47.684	-315.011	-39.041	234.842	111.163	106.990
607006.034	-58.711	-54.538	51.856	-316.203	-29.802	232.458	104.308	108.480
607006.042	-57.518	-49.472	43.213	-313.818	-37.849	232.756	118.017	109.076
607006.050	-66.161	-50.068	34.273	-313.222	-42.021	236.034	106.990	118.315
607006.058	-59.307	-44.405	42.915	-287.592	-46.492	227.392	106.990	112.057
607006.066	-58.413	-49.472	42.319	-284.612	-33.975	233.352	117.123	115.931
607006.074	-70.035	-59.307	30.398	-292.957	-50.962	223.517	102.222	112.355
607006.082	-66.459	-54.836	33.975	-289.679	-45.598	212.491	102.222	100.434
607006.090	-84.937	-70.930	8.345	-306.368	-57.817	215.173	85.533	108.182
607006.098	-84.043	-68.843	9.835	-293.553	-78.976	206.530	88.215	103.116
607006.106	-73.612	-64.671	23.246	-291.765	-79.572	214.577	99.242	103.414
607006.114	-73.910	-52.452	29.802	-276.268	-46.790	210.106	92.685	111.163
607006.122	-56.028	-31.590	39.339	-243.187	-52.154	211.895	109.375	111.163
607006.130	-73.910	-54.836	14.603	-268.221	-70.035	203.550	90.897	101.924
607006.138	-74.506	-53.346	1.490	-271.797	-65.863	197.589	95.665	104.308
607006.146	-72.122	-51.260	19.968	-263.155	-64.373	199.080	92.685	102.818
607006.154	-79.572	-55.134	23.246	-257.492	-75.102	184.774	75.400	91.493
607006.162	-60.201	-36.061	32.485	-230.968	-70.035	196.695	103.116	103.414
607006.170	-62.585	-39.935	25.630	-235.736	-60.797	199.378	91.493	107.884
607006.178	-62.287	-37.849	30.100	-241.101	-64.075	182.390	83.745	99.540
607006.186	-59.009	-38.445	29.802	-238.419	-66.161	185.966	85.235	95.665
607006.194	-55.730	-26.524	21.458	-228.882	-41.425	181.794	79.274	97.752
607006.251	-53.942	-22.352	16.391	-228.882	-87.321	181.496	88.811	100.732
607006.259	-55.730	-25.630	29.206	-240.207	-103.116	178.516	73.612	90.599
607006.267	-53.644	-21.160	33.677	-217.557	-105.202	163.317	70.333	83.148
607006.275	-52.154	-26.226	34.571	-207.424	-76.592	168.979	73.910	90.897
607006.283	-55.134	-21.756	25.332	-211.000	-87.619	151.396	54.538	78.976
607006.291	-37.253	-7.749	35.763	-190.735	-90.003	157.058	74.208	84.043
607006.299	-30.398	2.682	48.280	-184.774	-96.560	172.853	78.678	99.540
607006.307	-18.477	18.477	66.161	-168.979	-52.452	166.893	86.129	101.328
607006.315	-28.908	-1.788	54.836	-190.437	-76.592	162.423	77.486	101.328
607006.323	-34.869	-7.451	48.280	-196.993	-96.858	136.197	48.280	70.930
607006.331	-12.517	22.054	66.459	-166.893	-67.651	137.687	61.691	68.247
607006.339	-23.544	12.517	49.770	-180.602	-104.904	143.945	56.922	81.062
607006.347	-12.517	13.411	67.949	-174.940	-92.089	133.216	58.115	69.737
607006.355	-15.199	11.623	67.651	-179.112	-104.606	142.157	64.969	76.294
607006.363	-29.504	4.470	52.750	-178.814	-121.295	134.110	55.134	75.102
607006.371	-5.364	26.524	69.737	-152.588	-109.971	130.534	60.499	68.843
607006.379	-8.047	22.948	67.055	-165.701	-100.136	125.170	39.339	67.651
607006.387	2.980	37.849	77.784	-157.654	-85.831	112.057	42.021	61.989
607006.395	6.855	33.677	79.572	-154.078	-92.685	121.891	50.664	70.632
607006.403	0.894	26.524	72.718	-156.760	-92.387	117.719	39.041	67.353
607006.411	11.027	36.061	72.122	-143.349	-115.037	117.719	50.366	62.287
607006.419	2.980	26.524	68.843	-154.674	-117.719	118.017	45.002	65.565
607006.427	16.689	34.869	93.877	-146.627	-97.752	108.480	50.962	55.134
607006.435	17.881	36.359	94.473	-156.164	-104.606	115.335	53.644	57.817
607006.443	16.093	40.233	81.956	-146.031	-114.143	104.606	37.551	50.664
607006.407	36.657	60.499	88.513	-113.845	-99.540	101.626	42.617	50.962
607006.415	27.120	47.982	68.843	-130.236	-103.414	106.990	36.657	57.220
607006.423	39.041	51.558	95.367	-126.362	-90.003	96.858	42.319	47.684
607006.431	50.366	59.307	110.567	-117.123	-88.215	107.288	48.578	53.048
607006.439	48.876	70.333	108.182	-105.798	-98.646	100.136	35.465	49.770
607006.447	60.797	81.956	119.507	-93.877	-86.427	97.752	46.194	45.896
607006.455	41.127	58.413	91.493	-111.461	-99.242	104.308	38.743	53.942
607006.463	47.982	59.605	101.626	-107.586	-83.148	94.473	38.445	46.194
607006.471	59.307	65.267	117.123	-100.136	-71.824	100.732	43.511	49.472
607006.479	76.294	83.745	126.958	-76.890	-72.122	96.560	38.147	49.174
607006.487	118.613	126.958	167.787	-40.829	-42.915	101.328	53.346	48.876
607006.495	146.329	146.925	209.212	-12.219	-14.603	103.414	45.896	53.942
607006.503	200.868	203.550	268.519	42.021	6.855	91.791	46.194	46.790
607006.511	240.505	247.955	305.474	86.129	15.497	103.116	51.558	53.048
607006.519	282.228	300.705	338.852	139.177	20.266	101.328	47.088	51.856
607006.527	354.946	379.384	399.351	219.643	68.247	102.520	66.757	55.134
607006.535	365.674	398.755	394.881	236.630	88.811	108.182	57.817	62.287
607006.543	391.901	429.749	427.663	272.989	100.732	102.222	60.499	55.432
607006.551	406.802	448.227	443.161	305.176	108.182	113.845	71.228	64.969
607006.559	389.218	439.286	426.471	298.023	94.771	105.500	57.220	60.201
607006.567	390.112	433.624	424.385	300.109	116.825	109.076	70.333	61.989
607006.575	365.078	410.080	382.960	273.883	94.175	111.461	58.711	69.439
607006.583	335.276	376.105	364.482	243.187	78.678	93.281	51.558	54.538
607006.591	306.368	338.554	360.608	212.491	106.096	98.944	56.624	55.432
607006.599	264.049	302.792	301.898	181.794	92.387	91.493	44.405	52.154
607006.607	244.975	269.711	290.871	160.635	59.605	82.552	42.617	44.405
607006.615	201.762	214.577	252.426	108.480	66.161	77.486	27.120	44.107
607006.636	180.304	191.629	244.379	90.599	89.109	70.333	29.802	38.147
607006.644	153.184	169.873	190.735	84.341	63.479	83.745	37.253	50.664
607006.652	117.421	121.891	157.952	37.849	37.551	71.824	24.736	40.531
607006.660	106.692	95.963	175.238	0.894	50.366	61.989	26.524	29.802
607006.668	74.506	65.565	134.706	-2.384	45.896	62.287	12.219	31.292
607006.676	56.624	40.233	120.103	-11.325	46.194	51.260	15.497	24.438
607006.684	29.504	18.775	79.274	-24.736	39.041	55.432	14.603	28.908
607006.692	6.855	-5.960	56.028	-41.425	33.081	48.280	5.066	25.034
607006.700	5.066	-17.285	59.009	-58.711	33.379	51.558	21.458	30.398
607006.708	-12.517	-33.379	39.339	-77.188	30.100	46.492	7.153	29.206
607006.716	-7.153	-33.975	56.624	-60.201	49.770	28.312	0.000	12.219
607006.724	-20.862	-47.982	29.504	-59.903	40.829	36.061	0.596	19.670
607006.732	-35.763	-60.797	19.670	-70.930	44.703	23.246	-13.709	12.517
607006.740	-30.398	-49.770	20.266	-66.459	53.346	21.756	-0.298	7.451
607006.748	-47.088	-72.122	-0.298	-85.533	42.617	19.073	-12.815	9.239
607006.756	-51.558	-78.678	-9.537	-99.838	48.578	5.960	-15.199	-0.298
607006.764	-55.432	-78.976	-12.219	-98.050	53.346	13.113	-10.729	5.662
607006.772	-67.651	-84.937	-24.438	-96.858	37.551	-1.490	-30.696	-4.470
607006.780	-53.644	-75.400	-10.133	-81.658	38.445	2.682	-16.689	-3.576
607006.788	-53.048	-82.254	0.596	-87.917	58.115	2.682	-22.054	0.000
607006.796	-41.723	-65.267	15.497	-78.082	73.314	-7.451	-23.842	-8.941
607006.804	-42.319	-67.651	4.470	-84.639	71.824	8.345	-16.689	3.874
607006.812	-44.703	-73.016	-3.576	-92.089	71.228	8.345	-21.458	5.960
607006.820	-26.822	-47.684	15.795	-60.797	67.651	5.364	-13.113	2.384
607006.828	-39.339	-62.883	-11.325	-64.373	60.499	6.258	-24.438	4.172
607006.836	-36.955	-69.141	-16.391	-84.043	61.393	4.768	-13.709	-0.596
607006.844	-39.935	-67.055	-9.537	-92.685	61.989	8.047	-14.305	3.874
607006.852	-39.339	-45.300	-18.775	-57.817	51.558	3.576	-21.160	3.576
607006.838	-10.729	-32.783	11.027	-36.657	74.506	5.960	-7.749	3.278
607006.846	-9.835	-38.445	32.485	-47.386	94.175	10.133	-18.477	5.662
607006.854	-8.345	-33.379	28.610	-39.041	91.493	2.086	-11.325	0.894
607006.862	-23.246	-44.703	3.874	-62.585	74.208	11.325	-3.278	6.855
607006.870	-33.081	-50.366	-11.325	-74.506	64.373	4.470	-14.603	2.682
607006.878	-12.517	-34.273	11.325	-54.836	77.784	1.788	-9.537	2.086
607006.886	-19.372	-39.041	9.537	-50.068	79.870	2.384	-22.054	3.874
607006.894	-12.815	-30.696	10.729	-38.147	80.466	-3.576	-16.391	-2.682
607006.902	-9.239	-29.504	15.199	-52.154	80.466	7.749	-7.749	3.278
607006.910	-10.729	-33.379	11.623	-61.691	84.639	-4.172	-17.285	-5.066
607006.918	-6.855	-26.822	5.960	-33.975	67.651	-7.451	-11.623	-8.345
607006.926	-22.054	-48.578	-1.192	-47.088	55.432	0.894	-20.266	-3.278
607006.934	-2.384	-33.081	22.948	-29.206	85.235	-9.537	-18.775	-12.517
607006.942	-6.557	-34.273	11.921	-31.590	88.513	-2.384	-15.199	-5.960
607006.950	-20.564	-42.021	-6.855	-49.770	76.890	-7.749	-21.458	-7.451
607006.958	-19.073	-48.280	-7.749	-62.883	70.035	-11.921	-14.603	-12.517
607006.966	-32.783	-61.691	-18.179	-75.102	51.856	-10.133	-29.504	-14.603
607006.974	-24.736	-45.896	-6.557	-51.558	48.876	-15.199	-25.034	-16.987
607006.982	-30.994	-53.644	-21.458	-43.809	61.393	-11.325	-22.650	-13.709
607006.990	-39.339	-60.499	-36.955	-43.213	61.691	-23.842	-35.167	-19.968
607006.998	-31.888	-67.353	-19.670	-50.068	64.373	-24.140	-24.736	-17.881
607007.006	-46.790	-70.333	-27.418	-64.075	57.518	-21.458	-36.955	-13.411
607007.014	-37.253	-50.962	-25.034	-38.147	55.432	-31.292	-35.763	-25.332
607007.022	-41.425	-62.585	-33.677	-49.770	56.028	-22.650	-28.908	-18.775
607007.030	-50.962	-65.565	-37.551	-54.836	50.664	-26.822	-34.571	-19.372
607007.038	-38.445	-61.393	-28.312	-45.002	51.260	-21.458	-22.054	-17.285
607007.046	-51.558	-79.572	-42.617	-52.452	43.511	-19.968	-33.081	-14.305
607007.054	-51.558	-71.526	-42.617	-40.233	37.253	-28.014	-31.590	-19.670
607007.075	-44.703	-62.287	-45.598	-39.339	52.154	-17.285	-25.928	-10.431
607007.083	-45.598	-64.373	-41.723	-39.339	70.333	-22.650	-28.610	-12.815
607007.091	-41.723	-66.161	-26.822	-34.273	67.949	-25.332	-21.756	-14.007
607007.099	-57.518	-73.910	-40.829	-47.088	50.366	-24.438	-33.677	-8.643
607007.107	-45.002	-52.452	-33.975	-21.756	52.750	-28.312	-24.736	-11.325
607007.115	-51.856	-68.247	-47.982	-25.928	45.598	-18.775	-22.054	-6.855
607007.123	-63.777	-75.996	-64.969	-48.578	42.915	-29.504	-34.273	-14.007
607007.131	-48.876	-53.942	-52.750	-18.775	53.346	-31.292	-25.034	-16.689
607007.139	-53.942	-64.969	-45.002	-16.093	34.273	-29.802	-34.869	-12.815
607007.147	-52.452	-61.989	-34.869	-17.285	42.915	-28.014	-23.842	-10.133
607007.155	-77.188	-91.493	-64.969	-51.558	42.021	-12.219	-17.583	2.086
607007.163	-60.499	-69.439	-62.585	-18.477	48.280	-26.822	-28.312	-8.047
607007.171	-32.783	-31.888	-37.253	23.842	52.154	-25.630	-15.199	-9.537
607007.179	-37.253	-36.657	-45.002	30.398	43.511	-21.458	-21.160	-2.980
607007.187	-28.014	-31.888	-45.598	40.531	35.465	-28.610	-12.815	-9.835
607007.195	-29.504	-40.829	-55.432	32.485	23.246	-19.670	-8.345	-2.980
607007.203	-39.041	-47.088	-66.161	40.829	12.517	-27.418	-18.179	-6.557
607007.211	-40.233	-45.896	-58.115	51.856	12.815	-24.736	-6.855	-6.258
607007.219	-56.028	-57.518	-73.016	32.783	6.855	-22.948	-18.477	-1.788
607007.227	-47.982	-51.558	-71.228	39.339	1.490	-32.187	-21.160	-10.431
607007.235	-53.048	-57.220	-72.420	36.061	-5.066	-25.034	-19.670	-5.662
607007.243	-57.817	-60.201	-80.168	23.544	3.874	-31.292	-24.438	-8.047
607007.251	-38.445	-45.896	-69.439	45.896	15.497	-28.908	-10.133	-4.768
607007.259	-54.836	-60.499	-82.254	37.253	2.682	-27.716	-23.842	-3.576
607007.267	-55.730	-59.605	-73.016	42.915	7.153	-33.975	-20.564	-11.623
607007.275	-61.095	-64.969	-82.850	42.319	-2.384	-30.994	-22.948	-6.557
607007.283	-68.843	-67.353	-91.195	39.339	-17.285	-44.107	-37.253	-15.497
607007.291	-45.300	-54.538	-75.996	37.849	8.047	-37.253	-18.179	-12.219
607007.280	-64.373	-74.804	-89.705	10.133	-2.384	-42.021	-32.485	-15.199
607007.288	-55.730	-55.134	-75.996	43.809	1.490	-51.558	-28.908	-23.544
607007.296	-54.240	-56.922	-78.678	46.492	-1.192	-42.319	-22.650	-17.583
607007.304	-58.413	-64.969	-84.043	45.002	-5.662	-52.154	-35.167	-22.054
607007.312	-49.174	-53.942	-76.890	48.578	4.768	-45.896	-20.266	-19.073
607007.320	-59.307	-63.777	-87.917	24.438	-2.384	-37.849	-25.034	-8.643
607007.328	-49.770	-53.048	-81.062	55.432	2.980	-44.703	-22.650	-16.689
607007.336	-55.730	-62.585	-85.831	52.750	-0.298	-47.684	-29.206	-20.266
607007.344	-62.287	-68.843	-94.175	37.551	-4.768	-53.942	-36.061	-21.160
607007.352	-56.028	-57.817	-92.089	44.703	-8.941	-44.405	-19.073	-14.901
607007.360	-63.777	-65.267	-104.606	44.405	-11.325	-46.790	-34.571	-18.179
607007.368	-49.472	-57.220	-89.109	56.922	1.490	-54.538	-28.610	-23.842
607007.376	-53.942	-64.671	-91.493	41.723	8.941	-42.915	-22.948	-14.603
607007.384	-63.777	-66.459	-90.003	42.021	4.172	-54.240	-36.657	-22.948
607007.392	-52.154	-61.393	-75.996	47.386	0.000	-53.644	-25.630	-21.160
607007.400	-62.883	-74.804	-92.685	24.736	-15.497	-54.538	-37.253	-16.987
607007.408	-48.280	-50.962	-91.493	60.201	-1.490	-64.671	-35.465	-25.332
607007.416	-47.982	-55.730	-87.321	73.612	8.643	-59.903	-34.571	-20.564
607007.424	-56.028	-63.479	-89.705	61.989	0.596	-69.737	-44.405	-27.716
607007.432	-46.790	-58.413	-78.082	63.777	3.576	-65.267	-30.398	-26.524
607007.440	-53.346	-73.016	-94.771	51.260	6.557	-62.585	-38.445	-21.160
607007.448	-45.002	-63.181	-85.235	61.095	2.086	-70.930	-36.061	-30.100
607007.456	-55.134	-70.035	-104.606	52.750	-1.192	-63.181	-39.637	-25.332
607007.464	-63.777	-81.062	-121.593	55.432	-5.364	-58.115	-40.829	-21.756
607007.472	-44.107	-75.996	-88.811	65.267	6.557	-51.260	-22.054	-18.179
607007.480	-47.386	-86.725	-88.513	48.876	19.073	-61.393	-32.783	-19.372
607007.488	-42.319	-84.639	-85.533	55.432	19.073	-76.592	-34.571	-33.975
607007.496	-48.578	-78.380	-98.348	55.730	3.874	-70.632	-36.657	-30.994
607007.513	-51.260	-80.764	-108.182	60.201	-0.298	-77.784	-43.809	-33.081
607007.521	-31.292	-71.526	-90.897	80.764	29.206	-70.035	-26.822	-25.630
607007.529	-42.319	-84.639	-105.798	61.393	36.061	-69.141	-38.743	-24.736
607007.537	-40.531	-78.678	-97.156	63.479	33.677	-80.466	-39.041	-34.869
607007.545	-43.213	-85.533	-97.156	60.499	26.226	-78.678	-40.233	-31.590
607007.553	-44.703	-81.360	-97.156	57.220	38.147	-92.387	-50.962	-39.339
607007.561	-33.677	-67.055	-93.877	75.996	46.790	-95.963	-40.829	-42.617
607007.569	-40.531	-77.486	-102.520	78.380	44.703	-104.308	-55.134	-42.617
607007.577	-34.571	-72.122	-94.473	87.917	49.472	-110.269	-52.750	-49.174
607007.585	-37.253	-76.592	-96.262	76.294	46.790	-103.414	-51.856	-42.617
607007.593	-35.465	-71.824	-86.129	78.678	49.770	-112.057	-60.797	-47.684
607007.601	-26.226	-59.903	-79.572	80.466	59.307	-109.076	-51.558	-47.088
607007.609	-43.213	-78.082	-99.838	64.075	55.432	-104.904	-61.989	-41.127
607007.617	-34.869	-64.671	-101.924	83.447	56.028	-104.904	-51.558	-42.021
607007.625	-33.677	-62.585	-90.897	88.513	58.413	-97.752	-50.068	-36.955
607007.633	-32.783	-70.930	-80.764	82.850	64.075	-100.136	-54.538	-39.637
607007.641	-23.544	-64.969	-81.658	77.784	66.459	-89.705	-35.763	-34.273
607007.649	-36.657	-78.082	-101.030	67.055	59.605	-95.665	-52.452	-35.763
607007.657	-32.783	-68.247	-90.301	81.658	63.777	-99.838	-50.962	-40.233
607007.665	-32.783	-57.518	-93.281	93.579	65.267	-84.937	-45.300	-29.802
607007.673	-41.723	-67.651	-102.222	87.619	62.883	-91.493	-53.644	-34.869
607007.681	-37.551	-73.612	-95.069	69.737	58.115	-89.109	-45.598	-37.253
607007.689	-48.578	-73.910	-106.394	57.220	58.115	-90.003	-56.922	-36.359
607007.697	-44.703	-71.526	-112.355	74.208	58.413	-98.348	-53.942	-44.405
607007.705	-51.558	-86.725	-120.103	61.989	40.531	-93.579	-57.220	-41.127
607007.713	-49.472	-76.294	-112.653	75.102	34.571	-89.109	-54.538	-34.571
607007.721	-61.393	-89.109	-122.488	63.479	33.379	-77.784	-38.743	-30.398
607007.729	-59.009	-85.533	-114.739	59.605	50.068	-90.301	-58.413	-39.339
607007.734	-39.339	-59.009	-96.262	67.949	64.671	-99.242	-56.922	-45.896
607007.742	-41.127	-63.479	-84.341	55.730	78.082	-93.877	-59.605	-39.637
607007.750	-42.617	-62.287	-82.552	47.088	86.129	-103.414	-71.228	-42.319
607007.758	-28.312	-51.558	-75.996	49.472	93.579	-99.540	-62.883	-42.617
607007.766	-33.081	-60.201	-77.784	37.849	87.619	-94.175	-65.565	-36.657
607007.774	-39.935	-73.612	-81.062	20.564	75.400	-98.050	-58.115	-42.021
607007.782	-59.307	-87.619	-104.606	13.709	63.479	-89.407	-60.797	-36.359
607007.790	-61.393	-84.341	-112.951	19.670	63.181	-92.387	-68.843	-38.445
607007.798	-40.829	-72.420	-89.407	29.504	74.804	-84.043	-53.942	-34.571
607007.806	-53.048	-76.592	-98.944	28.908	70.930	-83.745	-64.969	-33.081
607007.814	-48.578	-75.400	-92.685	29.504	64.075	-86.427	-57.817	-37.253
607007.822	-54.538	-82.850	-95.665	25.630	61.691	-75.102	-52.154	-26.524
607007.830	-72.122	-92.089	-116.825	13.411	57.518	-90.301	-74.506	-34.571
607007.838	-72.420	-99.242	-123.382	8.047	56.028	-83.745	-68.247	-36.359
607007.846	-75.102	-105.798	-110.865	4.470	47.088	-79.274	-73.314	-35.763
607007.854	-71.228	-92.089	-109.971	12.815	42.021	-77.486	-62.883	-38.147
607007.862	-62.883	-91.493	-110.269	11.623	55.730	-66.161	-56.922	-29.504
607007.870	-64.671	-95.963	-106.096	14.603	56.922	-67.651	-61.989	-31.888
607007.878	-62.883	-91.493	-117.123	17.285	49.174	-64.373	-53.048	-29.802
607007.886	-75.400	-97.454	-131.726	6.855	41.723	-77.784	-72.420	-35.167
607007.894	-71.228	-91.493	-114.441	21.160	42.021	-95.367	-76.294	-46.492
607007.902	-63.777	-87.917	-108.778	24.736	47.982	-98.348	-75.996	-45.598
607007.910	-62.585	-84.639	-106.990	18.477	45.598	-109.375	-80.466	-48.876
607007.918	-47.684	-72.420	-89.109	37.551	52.452	-98.646	-63.479	-41.723
607007.926	-49.472	-71.526	-95.069	42.915	59.009	-101.626	-74.208	-39.935
607007.934	-47.088	-66.161	-92.089	49.472	56.922	-116.229	-77.188	-51.260
607007.942	-52.154	-76.294	-104.308	39.935	45.896	-118.315	-80.168	-50.068
607007.950	-52.154	-75.698	-108.182	44.703	36.657	-122.190	-81.360	-46.790
607007.955	-42.617	-61.095	-83.447	56.326	42.021	-111.461	-68.545	-44.703
607007.963	-41.127	-60.499	-84.341	54.538	48.876	-112.951	-75.996	-46.790
607007.971	-39.339	-59.009	-83.745	53.346	51.856	-117.123	-74.208	-51.558
607007.979	-47.386	-70.632	-103.414	43.511	43.511	-113.547	-76.294	-48.876
607007.987	-50.664	-75.102	-108.480	52.154	36.657	-115.633	-80.168	-50.366
607007.995	-32.783	-56.028	-75.698	70.333	45.896	-102.520	-63.777	-41.127
607008.003	-39.637	-54.538	-83.148	62.287	45.598	-100.136	-69.737	-40.233
607008.011	-41.425	-57.817	-87.619	64.969	35.763	-110.567	-68.843	-47.982
607008.019	-44.107	-67.949	-95.367	53.942	24.438	-107.884	-66.459	-44.107
607008.027	-43.809	-69.141	-88.513	44.107	38.147	-119.805	-76.294	-50.962
607008.035	-37.551	-60.797	-84.043	60.499	44.107	-121.295	-74.804	-56.028
607008.043	-43.213	-58.413	-96.560	77.784	28.014	-123.084	-81.062	-54.538
607008.051	-42.319	-56.922	-92.983	65.267	23.246	-122.786	-73.612	-53.942
607008.059	-36.657	-59.605	-93.579	68.545	32.485	-113.547	-71.228	-46.492
607008.067	-35.465	-54.240	-81.956	81.062	35.763	-118.911	-75.698	-48.280
607008.075	-40.233	-55.432	-85.831	67.949	27.120	-120.103	-73.016	-50.068
607008.083	-35.763	-53.942	-87.917	64.075	38.147	-117.421	-77.486	-44.405
607008.091	-25.928	-45.002	-69.439	81.658	35.167	-116.527	-73.016	-43.809
607008.099	-29.504	-52.452	-67.651	75.400	27.716	-105.202	-69.439	-37.551
607008.107	-36.061	-59.307	-70.035	67.353	30.696	-117.421	-72.718	-45.896
607008.115	-26.822	-47.386	-71.228	84.639	34.273	-112.653	-62.287	-44.107
607008.123	-37.551	-55.432	-79.572	68.843	25.928	-120.103	-78.082	-45.300
607008.131	-30.994	-45.300	-74.506	85.831	25.332	-126.958	-74.506	-46.194
607008.139	-30.994	-42.319	-82.254	92.089	17.285	-119.209	-70.035	-40.829
607008.147	-41.127	-58.413	-91.493	71.824	7.749	-128.150	-77.784	-50.068
607008.155	-30.100	-58.711	-75.698	73.314	22.948	-121.891	-64.671	-45.300
607008.163	-33.379	-55.730	-75.698	77.486	24.140	-124.574	-71.824	-43.809
607008.171	-33.379	-46.492	-76.890	87.023	12.517	-132.620	-72.718	-52.750
607008.189	-36.955	-57.817	-82.850	83.148	10.431	-127.852	-72.718	-48.578
607008.197	-37.253	-54.836	-83.148	86.427	4.768	-133.216	-75.996	-51.558
607008.205	-36.061	-51.856	-93.281	90.599	5.364	-127.256	-63.777	-50.962
607008.213	-37.253	-58.711	-84.639	76.592	8.047	-124.872	-67.651	-47.684
607008.221	-28.908	-50.068	-75.102	77.486	15.199	-125.766	-62.883	-48.280
607008.229	-30.100	-46.194	-81.360	85.235	3.874	-118.017	-64.373	-44.107
607008.237	-30.100	-50.962	-81.658	92.983	3.278	-126.362	-72.122	-47.684
607008.245	-30.696	-50.664	-93.877	102.818	3.278	-123.978	-67.055	-47.684
607008.253	-43.809	-69.141	-96.262	89.705	-9.835	-134.110	-84.043	-56.028
607008.261	-33.379	-71.228	-79.274	81.658	0.894	-141.263	-80.764	-62.883
607008.269	-22.650	-59.605	-71.228	75.996	16.093	-130.236	-73.314	-55.432
607008.277	-23.544	-56.624	-80.764	89.109	13.709	-132.322	-78.082	-56.624
607008.285	-21.756	-60.499	-88.215	96.858	2.384	-126.660	-68.545	-52.750
607008.293	-32.485	-76.294	-86.427	79.572	-8.643	-130.832	-81.360	-56.326
607008.301	-29.206	-70.333	-81.956	92.983	4.768	-139.475	-81.062	-65.267
607008.309	-30.696	-78.380	-91.791	87.321	8.643	-135.899	-83.745	-62.883
607008.317	-33.677	-78.082	-101.924	73.612	-1.788	-141.263	-86.427	-62.883
607008.325	-22.948	-74.804	-86.427	83.447	3.576	-134.110	-74.506	-61.095
607008.333	-28.908	-76.294	-82.254	81.062	-0.298	-131.726	-84.341	-61.691
607008.341	-21.160	-62.883	-75.400	102.222	2.682	-139.177	-82.850	-69.141
607008.349	-16.391	-69.141	-76.592	96.858	19.372	-127.852	-75.996	-59.009
607008.357	-14.901	-59.605	-77.486	97.752	23.246	-128.150	-73.314	-54.836
607008.365	-11.325	-57.518	-84.937	101.626	28.908	-122.488	-62.883	-53.346
607008.373	-20.862	-71.228	-90.897	87.917	22.650	-123.382	-70.333	-52.154
607008.381	-12.219	-69.439	-72.122	99.242	27.418	-124.872	-67.353	-53.346
607008.389	-7.153	-59.009	-68.843	101.030	41.127	-110.269	-62.287	-40.531
607008.397	-11.623	-60.797	-87.023	100.732	29.802	-118.017	-70.035	-44.703
607008.405	-8.345	-58.711	-87.321	93.877	25.332	-116.229	-66.459	-44.703
607008.409	-15.497	-60.499	-81.062	89.109	36.359	-118.315	-73.016	-45.598
607008.417	-7.153	-56.922	-70.632	93.281	46.194	-122.190	-66.459	-50.962
607008.425	1.490	-51.260	-60.201	105.202	42.617	-109.673	-59.605	-40.829
607008.433	-6.258	-48.280	-75.102	111.461	34.869	-111.163	-68.247	-39.339
607008.441	-2.086	-57.817	-73.314	115.931	34.869	-113.845	-65.863	-44.703
607008.449	-16.689	-69.439	-84.043	85.235	22.054	-118.315	-75.400	-47.982
607008.457	-30.398	-75.102	-105.500	72.122	14.007	-118.911	-67.651	-45.896
607008.465	-11.325	-53.048	-84.043	93.877	42.319	-122.488	-76.592	-48.280
607008.473	-25.034	-64.373	-83.447	80.466	44.405	-135.601	-93.281	-59.009
607008.481	-30.994	-74.208	-85.831	66.161	51.856	-132.918	-85.831	-59.307
607008.489	-48.280	-99.540	-102.520	33.677	43.809	-143.945	-102.222	-64.373
607008.497	-47.088	-104.010	-97.454	23.544	50.068	-148.416	-98.348	-68.843
607008.505	-47.684	-109.076	-95.963	10.133	61.989	-138.581	-93.579	-60.499
607008.513	-53.346	-112.951	-96.262	0.596	58.711	-147.223	-105.500	-65.565
607008.521	-56.624	-124.872	-106.096	-6.258	50.366	-137.687	-88.811	-59.307
607008.529	-69.141	-137.389	-112.653	-22.948	44.107	-137.985	-94.771	-58.711
607008.537	-64.671	-128.746	-107.288	-16.093	43.511	-148.416	-98.646	-70.333
607008.545	-65.863	-126.660	-102.520	-21.160	42.617	-140.071	-97.454	-61.691
607008.553	-76.592	-128.448	-116.825	-15.795	36.955	-146.925	-104.308	-65.863
607008.561	-69.439	-129.640	-120.699	-7.451	26.226	-135.899	-91.195	-61.691
607008.569	-73.314	-135.303	-105.202	-16.987	27.120	-134.706	-100.434	-59.903
607008.577	-66.757	-122.488	-101.030	-2.980	29.504	-140.369	-96.262	-63.181
607008.585	-70.632	-128.150	-118.017	-8.345	22.054	-140.965	-99.540	-64.671
607008.593	-74.208	-129.342	-117.421	-9.835	23.246	-155.568	-113.547	-76.592
607008.601	-64.671	-126.362	-110.269	-3.278	19.670	-156.760	-106.990	-74.506
607008.609	-71.526	-129.938	-113.845	-14.007	18.477	-160.635	-115.931	-74.804
607008.617	-69.439	-122.488	-107.288	-0.894	23.246	-159.740	-109.076	-78.082
607008.625	-59.009	-110.865	-96.560	13.113	27.120	-152.886	-104.606	-70.632
607008.630	-47.684	-101.030	-80.466	16.689	41.425	-160.038	-109.076	-77.188
607008.638	-16.689	-76.294	-47.982	34.571	50.366	-151.694	-95.069	-73.016
607008.646	6.258	-56.326	-26.226	48.578	49.472	-146.031	-98.050	-65.267
607008.654	42.915	-21.458	-1.490	72.718	87.619	-148.714	-94.473	-67.651
607008.662	74.804	10.133	41.127	92.983	101.030	-130.236	-85.831	-54.240
607008.670	115.335	62.287	77.486	141.263	88.811	-133.216	-88.811	-56.028
607008.678	175.834	124.574	133.812	196.695	111.759	-126.064	-73.910	-50.366
607008.686	223.219	165.403	183.284	238.419	137.687	-124.574	-78.380	-48.280
607008.694	295.639	244.081	251.830	329.018	183.582	-118.911	-65.267	-46.194
607008.702	306.070	271.499	247.359	352.859	161.529	-107.288	-58.413	-36.955
607008.710	299.215	272.989	214.577	348.687	113.249	-97.752	-46.790	-22.054
607008.718	318.289	294.149	238.121	387.430	114.441	-101.328	-38.743	-28.312
607008.726	316.501	288.785	270.903	414.252	136.793	-120.699	-65.565	-49.472
607008.734	289.083	271.499	230.968	407.398	113.249	-119.209	-59.009	-47.982
607008.742	251.830	244.379	174.344	386.536	68.247	-109.076	-53.644	-38.147
607008.750	212.491	194.013	112.355	329.614	37.253	-113.547	-59.307	-40.233
607008.758	186.563	161.231	135.601	291.467	38.743	-118.017	-59.903	-47.386
607008.766	156.462	142.753	117.719	292.659	46.492	-109.076	-58.115	-38.743
607008.774	134.408	113.845	73.910	281.036	16.093	-121.891	-61.989	-49.770
607008.782	102.818	88.513	25.332	247.359	-8.047	-114.143	-60.201	-46.492
607008.790	49.472	32.485	-38.147	205.636	-59.903	-123.680	-73.910	-53.942
607008.798	35.763	10.729	-34.571	177.324	-75.400	-116.825	-61.393	-47.684
607008.806	8.643	-31.292	-54.240	138.581	-97.156	-109.673	-61.989	-37.253
607008.814	2.086	-13.709	-60.201	146.627	-69.141	-118.613	-64.969	-48.280
607008.822	-10.431	-17.583	-75.102	151.694	-70.930	-114.739	-68.247	-51.856
607008.830	-28.014	-50.366	-80.466	133.216	-95.963	-112.057	-69.141	-47.088
607008.838	-28.908	-54.538	-100.136	130.832	-103.712	-106.692	-55.730	-41.723
607008.846	-48.876	-85.235	-114.739	92.089	-120.699	-113.547	-69.141	-47.088
607008.850	-49.770	-74.506	-112.057	98.348	-127.256	-123.978	-72.420	-58.115
607008.858	-48.280	-75.400	-101.328	100.732	-135.601	-125.766	-76.890	-58.115
607008.866	-53.644	-77.486	-101.328	93.579	-140.667	-132.024	-84.639	-60.797
607008.874	-50.068	-78.678	-101.626	96.560	-145.733	-125.766	-75.102	-57.518
607008.882	-53.644	-97.156	-112.951	75.996	-160.336	-117.719	-70.333	-49.770
607008.890	-49.472	-80.168	-115.633	87.619	-158.250	-128.448	-72.122	-60.201
607008.898	-50.366	-74.804	-113.845	97.156	-156.760	-123.084	-74.208	-56.028
607008.906	-50.664	-78.082	-115.931	87.023	-159.442	-122.488	-73.612	-52.452
607008.914	-52.452	-75.102	-116.229	72.122	-182.986	-122.190	-66.459	-52.750
607008.922	-56.326	-83.447	-100.434	79.274	-195.801	-125.468	-78.976	-52.452
607008.930	-73.314	-98.646	-114.739	54.836	-199.378	-120.997	-65.267	-53.048
607008.938	-65.863	-81.956	-106.692	70.035	-176.728	-123.382	-72.122	-60.499
607008.946	-55.730	-67.353	-83.745	90.897	-158.846	-135.005	-84.341	-69.141
607008.954	-70.035	-88.513	-88.215	60.797	-158.548	-141.263	-83.447	-74.804
607008.962	-90.301	-115.335	-100.434	22.948	-158.250	-147.223	-97.752	-76.890
607008.970	-102.222	-132.918	-107.884	-3.874	-162.125	-158.250	-102.520	-88.215
607008.978	-120.103	-155.866	-120.997	-39.041	-167.489	-163.317	-110.269	-90.003
607008.986	-129.044	-168.383	-119.507	-56.922	-163.019	-173.151	-115.633	-97.752
607008.994	-136.793	-183.880	-136.197	-73.314	-202.954	-172.257	-109.971	-100.434
607009.002	-156.164	-211.298	-131.130	-94.473	-170.767	-179.112	-128.150	-104.010
607009.010	-140.369	-201.464	-108.182	-84.937	-112.355	-174.344	-119.507	-101.328
607009.018	-139.475	-206.828	-115.037	-89.407	-123.084	-157.058	-107.884	-85.533
607009.026	-152.290	-216.663	-129.640	-98.646	-145.137	-175.834	-124.574	-102.520
607009.034	-128.448	-206.828	-80.764	-90.301	-105.500	-156.462	-101.328	-85.533
607009.042	-154.078	-233.352	-115.335	-132.024	-112.355	-167.787	-125.170	-96.262
607009.050	-161.827	-251.234	-111.461	-155.568	-120.699	-185.668	-133.216	-112.951
607009.058	-171.661	-261.366	-131.130	-160.933	-139.177	-171.363	-124.872	-98.646
607009.066	-176.132	-257.790	-142.157	-145.733	-115.633	-178.516	-129.044	-104.010
607009.085	-173.748	-253.916	-137.985	-155.568	-125.766	-169.277	-117.421	-100.732
607009.093	-173.748	-254.214	-138.879	-156.462	-155.568	-169.873	-129.938	-97.454
607009.101	-161.231	-249.743	-110.269	-151.694	-110.865	-186.265	-135.601	-109.971
607009.109	-164.211	-251.830	-118.911	-159.740	-101.626	-174.344	-126.958	-100.732
607009.117	-166.595	-243.187	-125.170	-133.812	-101.328	-173.151	-124.872	-98.944
607009.125	-168.681	-242.293	-133.812	-131.130	-110.269	-174.642	-121.891	-106.394
607009.133	-175.536	-247.657	-145.137	-140.965	-130.832	-174.046	-129.938	-101.626
607009.141	-176.132	-243.187	-143.945	-139.475	-130.236	-177.324	-126.958	-106.096
607009.149	-177.920	-246.465	-140.667	-148.118	-123.978	-171.065	-127.852	-102.520
607009.157	-182.688	-250.936	-146.925	-149.012	-137.389	-176.430	-133.812	-106.990
607009.165	-171.959	-237.226	-153.482	-137.985	-138.283	-167.191	-119.805	-99.540
607009.173	-169.873	-229.180	-161.231	-135.899	-125.766	-162.423	-120.997	-90.599
607009.181	-152.886	-208.616	-122.190	-127.256	-117.421	-152.886	-101.328	-83.745
607009.189	-161.529	-219.047	-138.581	-132.620	-135.601	-154.972	-105.798	-88.513
607009.197	-160.336	-214.875	-142.753	-113.547	-130.534	-163.317	-115.931	-92.387
607009.205	-150.502	-199.974	-127.554	-101.626	-113.249	-155.270	-104.904	-87.917
607009.213	-164.807	-210.106	-128.448	-121.295	-136.495	-165.999	-124.574	-99.242
607009.221	-149.012	-194.013	-129.342	-106.394	-128.448	-168.085	-115.037	-100.732
607009.229	-150.800	-192.225	-150.204	-104.308	-135.601	-151.694	-105.798	-86.427
607009.237	-155.568	-194.311	-152.290	-115.335	-143.349	-159.740	-115.335	-91.195
607009.245	-140.071	-175.536	-112.355	-93.579	-130.832	-157.356	-107.586	-91.493
607009.253	-151.098	-183.880	-128.448	-99.242	-143.051	-156.462	-113.249	-88.513
607009.261	-147.521	-176.728	-133.216	-84.639	-136.197	-163.615	-112.355	-96.560
607009.269	-149.608	-181.198	-140.369	-85.831	-157.356	-149.012	-104.308	-84.341
607009.277	-149.608	-188.053	-150.800	-102.520	-167.489	-154.376	-107.884	-89.407
607009.285	-135.601	-175.536	-115.037	-104.308	-152.588	-153.780	-105.202	-93.877
607009.293	-141.263	-166.893	-128.448	-89.109	-159.144	-157.952	-114.441	-90.897
607009.301	-147.820	-165.999	-144.243	-87.917	-179.410	-164.211	-112.355	-98.348
607009.320	-139.773	-161.827	-126.362	-73.910	-163.019	-154.376	-110.567	-92.089
607009.328	-128.150	-146.925	-118.613	-57.220	-165.105	-163.615	-118.911	-96.262
607009.336	-133.216	-155.568	-128.746	-66.459	-163.913	-165.105	-115.335	-98.348
607009.344	-135.601	-168.979	-127.852	-78.380	-171.363	-154.972	-107.884	-85.235
607009.352	-122.786	-145.137	-112.653	-64.373	-184.774	-160.933	-109.971	-92.089
607009.360	-116.229	-131.726	-94.175	-50.962	-157.952	-153.184	-107.288	-85.533
607009.368	-127.554	-136.197	-115.931	-55.432	-198.483	-145.435	-93.877	-76.592
607009.376	-129.640	-147.521	-115.931	-75.400	-172.257	-157.356	-107.586	-91.791
607009.384	-152.588	-187.159	-132.918	-104.606	-176.430	-167.191	-131.130	-96.560
607009.392	-105.798	-120.997	-78.678	-16.987	-169.873	-153.780	-109.076	-83.745
607009.400	-60.797	-60.499	-66.459	37.551	-177.026	-147.820	-106.990	-84.639
607009.408	6.258	11.623	8.345	91.195	-127.554	-148.118	-104.010	-84.937
607009.416	59.903	77.486	43.213	141.859	-126.660	-144.541	-94.175	-85.831
607009.424	127.554	126.064	137.985	191.331	-95.069	-140.667	-89.705	-80.168
607009.432	195.503	200.570	208.914	275.970	-65.267	-131.130	-72.420	-73.612
607009.440	244.081	262.260	225.902	330.210	-71.526	-111.461	-61.691	-58.711
607009.448	298.321	334.382	288.785	424.683	-56.922	-104.606	-53.644	-50.068
607009.456	337.660	377.595	319.183	491.440	-31.292	-97.454	-42.319	-47.684
607009.464	339.150	388.026	309.646	489.354	-54.836	-98.348	-50.962	-44.405
607009.472	336.170	391.006	305.772	474.751	-88.215	-100.136	-40.531	-48.578
607009.480	329.018	393.391	294.745	499.785	-97.156	-104.606	-51.260	-56.028
607009.488	327.528	382.960	294.149	527.799	-81.658	-90.897	-36.061	-41.127
607009.496	312.328	390.708	255.406	550.449	-92.089	-70.035	-14.007	-24.438
607009.504	272.691	345.111	224.411	509.024	-125.468	-80.764	-32.187	-37.551
607009.512	238.419	303.984	204.146	459.850	-145.137	-91.791	-38.445	-50.962
607009.520	187.457	251.830	136.197	404.120	-181.794	-88.811	-40.531	-45.300
607009.528	140.071	198.483	91.195	366.569	-213.981	-90.897	-37.253	-43.511
607009.536	112.653	176.728	52.750	359.416	-238.419	-75.102	-23.544	-30.100
607009.524	83.148	146.925	33.081	330.806	-246.465	-78.082	-36.955	-30.994
607009.532	63.479	117.719	40.531	306.666	-226.796	-81.360	-31.590	-39.935
607009.540	23.544	76.890	-17.583	251.830	-244.379	-81.062	-33.081	-38.743
607009.548	-12.815	49.770	-50.664	224.710	-280.738	-95.069	-48.876	-45.300
607009.556	-22.948	38.445	-45.896	219.047	-282.228	-84.341	-36.359	-41.127
607009.564	-43.809	14.305	-68.247	206.828	-283.718	-83.745	-42.319	-40.829
607009.572	-41.723	21.160	-74.506	213.087	-292.063	-79.274	-30.398	-39.041
607009.580	-49.174	9.835	-81.658	185.072	-303.984	-61.989	-21.160	-24.736
607009.588	-44.405	17.583	-71.824	202.954	-290.871	-59.009	-21.458	-20.862
607009.596	-54.240	9.537	-69.439	197.589	-280.738	-64.969	-21.160	-29.504
607009.604	-73.910	-5.066	-90.003	175.238	-286.400	-77.188	-38.743	-36.359
607009.612	-69.439	-1.490	-105.500	174.046	-279.844	-87.917	-39.935	-44.107
607009.620	-89.109	-21.756	-110.865	148.416	-297.427	-92.983	-53.644	-49.770
607009.628	-87.619	-18.179	-93.877	160.336	-286.400	-103.116	-61.989	-56.624
607009.636	-86.427	-25.630	-105.202	160.038	-284.910	-92.685	-47.386	-50.664
607009.644	-95.069	-28.610	-121.891	139.475	-294.447	-89.109	-51.260	-45.896
607009.652	-80.764	0.000	-98.646	163.019	-296.533	-95.069	-47.386	-50.962
607009.660	-87.917	-8.941	-92.089	153.780	-288.188	-89.109	-47.684	-44.703
607009.668	-89.705	-13.411	-85.235	143.945	-266.135	-95.665	-51.856	-47.982
607009.676	-80.466	-9.239	-84.639	154.972	-250.936	-92.387	-42.915	-45.002
607009.684	-93.579	-10.729	-95.367	146.925	-262.260	-105.500	-61.095	-57.220
607009.692	-95.367	-8.643	-104.904	150.502	-267.029	-114.739	-63.479	-66.459
607009.700	-95.665	-10.133	-114.143	141.859	-267.923	-100.732	-57.817	-53.048
607009.708	-94.473	-12.815	-115.633	130.832	-274.479	-97.156	-55.432	-47.386
607009.716	-84.043	-5.662	-78.976	145.137	-270.605	-93.281	-48.280	-46.790
607009.724	-70.930	8.345	-58.413	160.635	-224.710	-102.222	-64.671	-53.644
607009.732	-60.797	19.372	-58.413	168.681	-216.961	-110.269	-63.181	-61.393
607009.740	-73.612	-0.298	-83.148	134.408	-234.544	-104.904	-63.181	-56.326
607009.744	-73.910	-0.298	-92.387	115.037	-233.650	-110.269	-65.863	-59.009
607009.752	-59.903	8.643	-70.632	144.243	-231.564	-106.990	-62.585	-59.009
607009.760	-59.605	0.596	-69.141	151.396	-229.180	-102.520	-66.161	-54.240
607009.768	-52.452	2.682	-59.307	146.031	-227.690	-105.500	-59.307	-59.605
607009.776	-57.518	0.298	-71.526	136.793	-211.000	-97.454	-58.413	-50.664
607009.784	-66.757	-12.815	-61.691	114.441	-182.390	-106.990	-67.353	-56.028
607009.792	-71.526	-23.544	-64.969	121.593	-189.245	-104.010	-58.115	-53.942
607009.800	-41.723	14.305	-50.068	175.238	-175.834	-107.288	-66.161	-55.432
607009.808	-29.802	31.888	-47.684	191.331	-181.496	-108.182	-59.009	-59.307
607009.816	-12.219	46.492	-37.849	199.080	-184.178	-91.195	-49.174	-49.174
607009.824	-2.086	57.817	-26.822	212.491	-184.476	-80.168	-37.551	-38.147
607009.832	-10.729	46.194	-42.915	196.695	-188.947	-66.459	-22.650	-28.014
607009.840	-26.226	22.352	-65.863	168.383	-196.695	-75.102	-37.253	-33.081
607009.848	-22.352	18.775	-56.922	163.317	-182.092	-80.764	-31.590	-38.147
607009.856	-28.908	34.571	-67.353	179.410	-188.649	-69.737	-29.504	-30.696
607009.864	-20.564	43.213	-28.610	191.629	-174.642	-86.129	-45.598	-42.319
607009.872	-16.987	36.359	-21.160	181.794	-152.886	-83.745	-39.041	-42.021
607009.880	-28.908	23.842	-43.809	160.933	-151.098	-80.764	-43.511	-35.167
607009.888	-24.736	25.332	-40.531	160.933	-152.290	-88.215	-45.598	-39.935
607009.896	-28.908	28.610	-42.319	165.105	-155.866	-88.513	-50.962	-41.425
607009.904	-31.292	29.802	-57.518	169.873	-167.191	-97.752	-56.326	-47.386
607009.912	-29.206	26.822	-53.048	160.635	-165.999	-101.626	-54.836	-50.962
607009.920	-40.233	10.431	-43.213	135.601	-149.012	-104.308	-65.267	-52.154
607009.928	-33.081	18.179	-44.703	143.945	-141.859	-102.520	-53.346	-52.154
607009.936	-26.524	25.928	-47.088	144.243	-137.091	-89.407	-44.107	-43.511
607009.944	-23.544	37.849	-36.955	155.866	-131.726	-95.963	-51.856	-47.386
607009.952	-22.650	34.273	-37.849	161.231	-130.236	-92.089	-47.982	-44.703
607009.960	-31.590	21.160	-47.386	143.945	-132.024	-89.407	-53.346	-39.935
607009.979	-25.034	33.379	-39.041	149.906	-120.401	-90.301	-46.194	-42.915
607009.987	-27.716	30.696	-28.312	131.130	-120.997	-77.188	-39.935	-30.398
607009.995	-39.637	20.266	-30.398	125.766	-128.150	-86.427	-47.088	-35.763
607010.003	-26.226	42.915	-23.246	151.694	-116.825	-89.407	-47.386	-41.425
607010.011	-29.504	39.339	-26.822	148.714	-116.825	-91.195	-55.432	-41.127
607010.019	-25.928	40.531	-24.438	142.753	-113.845	-97.454	-49.174	-44.405
607010.027	-31.590	35.763	-34.869	125.766	-125.468	-91.195	-52.154	-39.339
607010.035	-43.511	22.054	-40.829	120.997	-137.389	-96.858	-58.413	-43.809
607010.043	-37.253	32.485	-29.802	123.680	-128.746	-93.579	-48.876	-41.127
607010.051	-36.359	35.763	-20.564	133.812	-112.057	-93.579	-57.518	-41.127
607010.059	-29.504	33.081	-16.093	142.455	-111.759	-98.944	-53.346	-46.492
607010.067	-35.763	26.226	-33.975	129.342	-126.362	-88.513	-49.472	-38.743
607010.075	-35.763	37.849	-27.716	126.958	-120.103	-94.473	-54.538	-41.723
607010.083	-38.147	38.445	-22.054	127.852	-113.845	-97.454	-56.326	-48.280
607010.091	-46.492	24.438	-15.497	112.653	-108.182	-95.963	-63.777	-49.472
607010.099	-37.849	34.571	-5.066	122.190	-98.646	-93.281	-48.280	-43.809
607010.107	-45.598	31.888	-17.583	122.488	-115.037	-87.917	-49.770	-37.253
607010.115	-54.240	25.332	-11.027	121.593	-112.057	-97.454	-59.009	-43.511
607010.123	-57.817	19.968	-11.325	111.759	-107.586	-88.215	-47.982	-40.829
607010.131	-62.287	23.842	-23.544	106.394	-117.123	-84.043	-49.472	-38.147
607010.139	-63.777	16.093	-19.372	109.673	-124.276	-90.003	-46.194	-41.723
607010.147	-37.253	37.849	8.047	125.766	-88.215	-89.705	-56.028	-41.723
607010.155	-19.073	54.538	30.994	127.852	-64.373	-97.156	-62.287	-46.790
607010.163	-17.583	57.817	30.100	107.586	-51.260	-99.838	-64.075	-49.770
607010.171	-22.948	48.578	30.994	90.897	-55.730	-101.626	-73.016	-47.684
607010.179	-12.517	52.750	39.339	94.175	-53.644	-104.010	-62.585	-46.194
607010.187	-16.391	51.558	27.418	77.486	-52.154	-95.963	-63.479	-40.233
607010.195	-19.073	54.240	17.881	95.367	-70.035	-103.116	-66.459	-47.982
607010.200	-19.968	47.386	30.994	93.877	-56.028	-100.136	-57.817	-50.962
607010.208	-23.246	49.472	35.167	77.188	-37.849	-98.646	-66.459	-46.790
607010.216	-17.285	56.028	28.014	100.434	-47.684	-104.010	-64.969	-52.452
607010.224	-27.716	37.551	17.583	82.254	-58.711	-95.665	-65.267	-47.684
607010.232	-29.504	32.187	18.775	76.294	-56.922	-97.156	-59.605	-45.896
607010.240	-23.842	49.174	35.167	84.043	-57.220	-92.387	-50.962	-40.829
607010.248	-34.273	41.425	15.795	77.486	-65.863	-90.003	-62.287	-37.849
607010.256	-33.975	35.465	7.153	76.294	-80.168	-95.367	-58.413	-45.002
607010.264	-38.743	29.802	-2.086	63.777	-98.050	-92.089	-59.605	-43.213
607010.272	-37.551	29.504	5.662	64.075	-91.195	-98.944	-61.989	-47.088
607010.280	-22.650	42.021	23.246	85.533	-54.240	-97.156	-54.240	-46.492
607010.288	-30.696	40.531	8.643	84.937	-51.856	-96.560	-61.691	-48.280
607010.296	-24.140	41.723	19.670	91.493	-55.432	-104.606	-60.201	-57.220
607010.304	-23.544	36.955	22.054	78.678	-68.545	-100.136	-64.373	-50.962
607010.312	-16.689	56.028	28.312	85.235	-72.718	-103.712	-67.353	-52.750
607010.320	-9.835	57.817	33.975	91.493	-56.922	-100.434	-57.220	-48.876
607010.328	-14.305	48.578	26.226	74.506	-50.962	-95.665	-60.201	-44.107
607010.336	-2.086	53.346	34.869	92.983	-47.088	-96.858	-54.836	-49.770
607010.344	-2.980	63.181	35.167	99.242	-60.201	-90.301	-57.817	-41.127
607010.352	-3.576	65.863	37.849	109.375	-61.393	-99.838	-63.181	-45.002
607010.360	-6.557	51.260	25.630	101.030	-58.711	-95.069	-54.240	-42.915
607010.368	-22.054	50.366	16.391	90.599	-77.784	-91.493	-58.413	-38.743
607010.376	-8.643	65.267	55.134	108.778	-50.962	-101.328	-57.220	-49.472
607010.384	-11.623	66.757	70.035	104.904	-41.425	-94.771	-55.730	-42.021
607010.392	-24.736	59.009	56.326	93.877	-55.134	-101.328	-60.797	-47.982
607010.400	-18.775	58.413	58.413	92.089	-55.730	-87.917	-47.684	-38.147
607010.408	-19.968	58.413	53.644	94.473	-61.393	-76.890	-43.213	-25.332
607010.416	-10.729	73.910	56.028	114.739	-61.393	-81.360	-36.359	-30.398
607010.434	-17.285	67.651	58.413	109.673	-64.075	-80.764	-44.107	-30.994
607010.442	-22.352	56.922	55.432	94.473	-63.479	-87.023	-48.280	-35.465
607010.450	-17.881	59.605	42.617	87.619	-66.757	-77.188	-34.571	-31.590
607010.458	-30.100	49.174	38.445	86.129	-77.784	-73.314	-41.127	-28.312
607010.466	-19.670	68.843	45.896	112.057	-64.969	-79.870	-37.849	-31.590
607010.474	-11.921	69.737	52.750	109.673	-63.777	-75.698	-37.551	-26.226
607010.482	-12.517	61.095	60.797	99.838	-67.949	-84.639	-45.598	-33.975
607010.490	-16.689	48.280	38.743	100.434	-71.526	-81.956	-42.617	-35.465
607010.498	-19.073	45.896	30.100	88.215	-78.678	-78.976	-47.088	-30.398
607010.506	-4.768	56.028	59.605	96.858	-62.287	-80.168	-37.253	-33.081
607010.514	-11.027	49.174	44.405	94.473	-52.750	-71.824	-39.041	-28.014
607010.522	-10.729	42.915	50.664	94.175	-58.115	-78.082	-44.107	-32.187
607010.530	-2.384	41.425	59.605	99.838	-48.280	-71.824	-36.061	-27.716
607010.538	-10.729	38.445	46.492	85.831	-51.558	-72.122	-44.703	-29.206
607010.546	-13.411	36.657	42.319	87.023	-51.856	-79.572	-43.809	-34.869
607010.554	-23.544	17.881	21.458	69.737	-75.996	-69.141	-43.511	-24.438
607010.562	-19.372	19.372	36.359	55.432	-64.075	-74.506	-45.300	-28.610
607010.570	-5.662	30.994	59.009	83.745	-22.054	-76.294	-42.021	-31.590
607010.578	-7.153	36.955	49.174	97.156	-23.544	-73.612	-47.088	-27.716
607010.586	2.086	43.213	48.876	100.136	-29.206	-66.757	-33.379	-22.948
607010.594	-6.557	30.100	45.896	77.486	-18.477	-64.075	-34.273	-21.756
607010.602	-11.325	32.783	36.657	78.678	-17.583	-75.996	-48.280	-34.273
607010.610	-15.497	29.504	24.736	75.996	-28.014	-75.400	-45.300	-34.571
607010.618	-20.862	19.968	33.081	54.836	-35.465	-74.506	-48.876	-30.696
607010.626	-2.682	31.292	54.538	66.459	-18.775	-77.486	-41.425	-31.888
607010.634	-0.298	37.253	47.088	88.215	-7.749	-69.141	-42.617	-23.246
607010.642	-4.172	32.783	46.790	79.274	-0.596	-80.466	-51.260	-33.975
607010.650	-3.576	32.187	39.041	79.274	-2.086	-78.380	-44.703	-32.187
607010.654	-15.497	23.246	25.928	72.122	-12.815	-81.062	-53.942	-33.677
607010.662	-11.027	28.908	39.339	75.996	-16.689	-84.937	-48.876	-38.445
607010.670	-12.219	22.650	34.273	60.201	-11.921	-73.314	-46.492	-29.206
607010.678	-8.047	26.524	30.696	61.393	-3.278	-75.400	-47.684	-30.696
607010.686	-2.682	28.014	29.206	75.698	-1.490	-78.082	-45.300	-35.167
607010.694	-13.411	17.583	17.583	61.691	-0.894	-77.486	-50.962	-34.571
607010.702	-3.874	32.783	31.292	70.930	3.278	-79.572	-46.194	-36.061
607010.710	-4.470	26.822	34.571	68.843	5.066	-76.294	-48.280	-29.206
607010.718	-6.258	29.504	27.120	57.518	3.576	-82.850	-50.068	-33.975
607010.726	-0.298	28.312	30.994	59.605	4.172	-78.678	-45.300	-36.359
607010.734	-13.113	17.285	19.968	59.307	5.066	-75.400	-47.386	-34.869
607010.742	-0.298	40.233	15.795	84.937	14.901	-76.890	-39.935	-37.551
607010.750	-3.576	31.292	22.948	83.148	7.451	-74.208	-47.982	-37.551
607010.758	-3.576	35.763	33.677	65.565	9.537	-83.745	-53.942	-45.598
607010.766	1.490	37.253	27.418	57.220	13.113	-78.976	-43.809	-40.531
607010.774	-0.596	34.571	30.398	73.314	10.729	-74.506	-48.876	-35.763
607010.782	8.047	43.809	33.975	84.639	2.980	-75.400	-40.829	-39.637
607010.790	8.941	39.935	38.147	80.466	16.093	-64.671	-38.743	-28.610
607010.798	7.749	43.511	38.445	70.333	25.928	-72.420	-43.511	-34.571
607010.806	10.133	44.405	32.485	77.784	23.246	-71.526	-40.233	-39.041
607010.814	-2.086	31.888	9.835	71.228	6.557	-70.930	-49.472	-39.935
607010.822	3.278	40.829	15.497	75.400	-1.788	-70.632	-37.253	-37.253
607010.830	7.153	46.790	32.485	76.890	1.788	-65.863	-38.445	-31.888
607010.838	14.603	49.472	40.531	79.274	11.325	-69.737	-42.915	-35.465
607010.846	-0.298	33.081	21.756	73.016	8.047	-67.055	-39.935	-33.975
607010.854	-3.278	31.590	11.921	70.035	-0.298	-69.737	-47.386	-36.061
607010.862	23.544	60.499	38.743	88.513	21.458	-70.035	-37.551	-36.955
607010.870	30.994	68.843	45.598	95.665	39.935	-56.624	-28.908	-24.140
607010.873	36.657	68.843	58.115	97.156	42.915	-59.307	-27.418	-29.206
607010.881	22.352	54.836	41.127	79.870	29.802	-63.777	-32.783	-34.571
607010.889	12.815	40.829	33.677	60.797	22.352	-67.651	-41.127	-34.273
607010.897	18.179	50.664	29.206	68.545	11.921	-72.122	-35.465	-38.743
607010.905	19.670	58.711	35.465	85.533	15.199	-67.055	-39.339	-35.763
607010.913	24.438	57.817	47.982	91.791	31.292	-75.102	-44.405	-40.233
607010.921	21.160	52.154	42.319	79.870	31.292	-70.035	-36.359	-35.167
607010.929	10.729	49.472	28.014	71.526	20.862	-67.353	-47.386	-35.465
607010.937	25.034	58.413	36.657	84.043	25.034	-71.228	-42.319	-40.829
607010.945	10.729	42.319	23.544	62.585	10.431	-69.141	-43.213	-38.147
607010.953	0.000	34.273	16.391	60.499	-2.682	-82.552	-52.750	-47.982
607010.961	12.815	41.425	32.187	81.360	15.795	-80.764	-47.386	-49.472
607010.969	6.557	42.319	28.014	74.804	13.709	-82.254	-56.624	-50.664
607010.977	11.027	46.492	22.352	75.698	9.239	-81.956	-48.280	-50.366
607010.985	7.749	44.405	18.775	67.055	9.835	-68.843	-47.088	-38.445
607010.993	8.941	45.598	31.888	70.632	13.411	-77.486	-54.836	-45.300
607011.001	13.709	47.386	29.206	75.400	11.623	-73.910	-47.088	-42.915
607011.009	-1.192	42.021	12.219	68.247	1.192	-74.804	-53.048	-40.829
607011.017	7.153	40.531	43.511	72.420	11.921	-78.380	-47.088	-44.107
607011.025	6.258	49.770	53.048	77.486	20.564	-75.102	-51.558	-40.829
607011.033	1.490	50.068	50.068	81.062	14.007	-79.870	-54.836	-46.492
607011.041	-3.278	41.127	42.319	68.843	5.960	-77.784	-51.856	-46.492
607011.049	-14.901	30.994	28.312	60.797	-13.411	-74.804	-54.836	-41.425
607011.057	-5.960	39.339	33.677	63.479	-7.153	-71.228	-43.809	-42.021
607011.065	-2.980	38.147	42.021	58.711	8.941	-64.671	-46.194	-36.657
607011.073	-0.596	39.637	45.896	59.307	8.643	-69.737	-48.876	-42.021
607011.081	-2.384	33.677	29.504	65.863	7.451	-67.949	-43.511	-40.829
607011.089	-11.325	30.994	27.716	60.797	1.490	-66.459	-49.472	-39.935
607011.108	0.894	45.896	53.346	78.976	-3.874	-67.949	-42.021	-41.723
607011.116	1.192	46.492	44.405	77.486	-10.729	-63.479	-42.617	-33.975
607011.124	-4.470	42.617	36.955	75.400	-5.960	-66.757	-43.511	-34.869
607011.132	-6.855	31.590	35.763	58.413	-1.192	-62.585	-38.147	-34.869
607011.140	-20.266	16.093	28.908	41.425	-6.258	-61.095	-44.405	-33.677
607011.148	-4.768	41.127	31.590	75.102	2.682	-62.585	-34.273	-35.465
607011.156	-8.047	36.061	19.968	84.043	-5.662	-54.240	-30.398	-26.226
607011.164	-10.729	25.332	29.802	67.353	-14.007	-59.009	-34.571	-32.187
607011.172	-16.093	26.226	22.650	60.201	-16.987	-56.624	-32.485	-32.187
607011.180	-33.677	14.901	2.980	39.935	-26.524	-61.095	-41.127	-32.485
607011.188	-30.696	17.881	-2.384	37.551	-38.445	-70.632	-42.319	-42.319
607011.196	-26.226	15.199	12.219	43.213	-23.842	-67.949	-50.366	-41.723
607011.204	-22.054	19.968	35.465	65.267	-5.066	-72.122	-52.452	-44.405
607011.212	-24.736	13.709	21.756	63.181	-19.670	-66.757	-44.405	-38.743
607011.220	-45.896	-4.768	-9.537	35.763	-43.511	-72.718	-57.220	-41.127
607011.228	-31.292	5.364	11.325	45.002	-29.802	-80.466	-54.240	-47.982
607011.236	-29.802	7.153	6.258	48.876	-22.352	-73.910	-51.856	-43.511
607011.244	-28.908	13.411	9.239	53.644	-29.206	-73.910	-48.578	-44.703
607011.252	-30.696	7.451	14.007	56.028	-27.120	-72.718	-46.194	-45.598
607011.260	-36.657	-2.384	8.941	56.624	-11.325	-66.757	-49.472	-42.319
607011.268	-13.113	13.113	25.332	67.651	0.000	-65.863	-40.531	-42.319
607011.276	3.278	25.332	47.982	81.360	17.583	-57.817	-39.935	-33.379
607011.284	35.167	52.452	83.447	98.944	34.571	-63.181	-40.531	-36.657
607011.292	86.427	97.752	126.958	131.428	47.088	-58.115	-33.379	-36.061
607011.300	138.879	147.820	174.344	181.198	74.506	-55.134	-39.339	-34.869
607011.308	204.742	216.365	235.140	248.551	102.520	-51.856	-26.524	-31.292
607011.316	248.849	266.731	265.241	281.632	120.699	-38.147	-16.391	-15.795
607011.324	313.520	327.826	342.429	347.197	177.324	-38.743	-10.729	-15.795
607011.326	349.581	365.973	371.337	385.642	182.092	-40.829	-11.325	-19.670
607011.334	365.078	379.086	379.682	391.305	197.589	-37.849	-18.179	-15.199
607011.342	390.112	421.405	398.457	427.961	191.629	-37.849	-10.431	-17.881
607011.350	375.807	411.570	385.642	418.127	182.986	-30.994	-9.537	-11.921
607011.358	380.874	401.437	400.245	412.464	211.000	-43.809	-17.583	-24.140
607011.366	373.423	393.391	377.595	420.809	206.232	-41.127	-9.835	-20.266
607011.374	346.005	361.502	388.920	375.807	214.875	-40.829	-18.775	-22.650
607011.382	317.097	336.170	350.475	360.608	199.080	-44.703	-17.583	-28.014
607011.390	280.142	291.169	288.188	323.057	173.151	-30.994	-13.113	-14.901
607011.398	254.512	255.406	272.691	284.612	161.827	-35.167	-11.623	-19.670
607011.406	219.643	225.604	240.505	250.041	132.024	-39.935	-14.603	-25.332
607011.414	199.974	200.272	238.121	224.411	142.157	-39.637	-24.140	-20.862
607011.422	174.344	165.999	209.212	209.510	139.773	-43.213	-22.054	-24.140
607011.430	143.945	132.918	154.972	182.092	103.414	-33.677	-17.881	-13.709
607011.438	120.997	118.315	140.965	160.635	102.520	-47.088	-25.034	-27.120
607011.446	111.759	101.030	147.820	147.521	107.288	-49.472	-27.418	-34.273
607011.454	87.619	73.314	126.958	120.401	90.003	-45.002	-33.975	-29.504
607011.462	74.804	61.691	110.865	118.017	87.023	-41.723	-21.756	-25.928
607011.470	52.154	47.386	84.937	99.242	84.937	-34.869	-25.332	-16.689
607011.478	28.014	28.908	51.856	87.619	60.797	-44.107	-29.206	-22.054
607011.486	15.795	8.941	44.405	67.651	31.590	-45.002	-23.842	-23.842
607011.494	3.278	-1.788	46.492	53.346	27.418	-46.790	-32.187	-26.822
607011.502	1.490	11.027	43.809	76.294	47.386	-50.068	-27.418	-33.379
607011.510	-26.226	-19.372	8.345	53.346	25.332	-44.107	-31.888	-31.292
607011.518	-30.100	-24.736	0.298	42.617	15.795	-45.598	-27.418	-31.292
607011.526	-23.544	-14.603	8.941	53.346	22.352	-39.339	-18.775	-26.524
607011.534	-46.492	-37.849	-21.756	29.504	0.596	-42.915	-27.716	-26.226
607011.542	-54.240	-39.935	-30.994	25.332	-22.054	-51.558	-28.610	-34.869
607011.546	-58.711	-44.405	-18.179	16.093	-16.689	-48.578	-32.783	-32.485
607011.554	-54.240	-42.617	-10.133	31.888	-6.557	-47.982	-30.994	-33.677
607011.562	-46.492	-28.014	-1.490	42.021	1.788	-36.359	-17.583	-25.630
607011.570	-49.472	-34.571	-0.298	37.849	-0.894	-37.849	-24.438	-22.650
607011.578	-44.107	-31.888	-2.086	45.896	-2.980	-43.213	-19.372	-30.398
607011.586	-52.750	-39.637	-24.438	23.544	-19.372	-37.253	-22.948	-24.736
607011.594	-54.538	-34.571	-27.120	25.332	-15.795	-42.617	-24.438	-26.226
607011.602	-47.684	-27.716	0.298	45.300	-6.258	-34.273	-16.689	-20.266
607011.610	-59.307	-42.319	-4.768	29.504	-15.199	-32.783	-22.352	-17.881
607011.618	-70.333	-61.393	-16.689	-1.788	-33.677	-44.107	-25.034	-29.206
607011.626	-83.148	-75.102	-45.002	-10.431	-53.644	-38.147	-25.332	-22.352
607011.634	-76.592	-45.002	-31.292	20.266	-49.770	-41.723	-24.438	-25.332
607011.642	-67.055	-36.359	-14.603	45.896	-19.968	-37.849	-20.564	-25.928
607011.650	-80.168	-57.518	-27.418	16.689	-21.756	-39.935	-28.014	-28.014
607011.658	-76.890	-53.942	-23.842	6.557	-33.379	-43.213	-24.140	-31.292
607011.666	-88.215	-62.585	-33.975	-6.557	-46.790	-34.571	-25.630	-21.160
607011.674	-112.653	-79.572	-57.220	-7.451	-65.565	-35.167	-27.120	-21.160
607011.682	-73.612	-43.809	-25.630	33.081	-36.657	-25.928	-16.391	-15.795
607011.690	-53.048	-19.968	5.960	45.598	-33.379	-24.140	-20.564	-16.689
607011.698	-36.955	7.153	13.411	87.619	-38.743	-35.167	-19.968	-24.438
607011.706	-29.206	11.027	11.921	107.586	-35.465	-21.160	-10.431	-9.835
607011.714	-28.610	19.968	4.470	116.825	-53.942	-16.093	0.298	-6.855
607011.722	-11.921	36.359	28.014	131.726	-58.115	-9.239	5.066	-2.980
607011.730	-19.670	22.352	16.689	128.746	-45.300	-8.345	-1.788	-0.298
607011.738	-22.054	17.285	16.093	129.044	-46.194	-12.517	7.451	-3.874
607011.746	-36.657	-1.490	4.470	112.653	-54.836	-3.874	9.835	2.980
607011.754	-54.836	-7.451	-3.874	93.281	-78.976	-16.987	-2.086	-7.749
607011.762	-68.545	-11.623	-21.160	102.818	-94.771	-8.345	6.258	-0.894
607011.778	-77.784	-34.571	-25.034	82.254	-95.963	-10.431	-4.768	-1.490
607011.786	-67.055	-26.524	-14.305	81.360	-85.235	-11.623	2.086	-1.788
607011.794	-76.592	-11.921	-14.901	97.454	-72.718	-4.768	2.980	4.768
607011.802	-73.016	-8.047	-1.192	108.480	-59.307	-7.749	6.258	2.682
607011.810	-75.102	-16.391	-10.431	97.752	-68.247	-5.066	12.517	3.278
607011.818	-90.301	-30.994	-24.736	94.771	-90.003	-6.855	1.490	2.086
607011.826	-82.850	-21.756	-2.384	96.858	-84.639	-17.881	-1.192	-8.941
607011.834	-86.129	-29.206	-2.682	81.658	-73.910	-11.027	-1.490	-1.490
607011.842	-86.427	-29.802	-11.623	76.294	-70.333	-15.497	1.788	-4.470
607011.850	-77.486	-15.795	-1.788	91.791	-68.247	-11.623	8.047	-2.384
607011.858	-84.639	-16.689	-15.795	90.301	-78.678	-10.431	0.000	-1.192
607011.866	-85.831	-18.775	-21.160	94.771	-81.062	-16.391	0.000	-7.451
607011.874	-84.639	-17.285	-2.384	84.341	-74.506	-8.643	-0.596	-0.298
607011.882	-85.235	-22.352	-0.596	79.572	-69.737	-7.153	7.451	3.278
607011.890	-86.129	-25.928	-4.768	74.506	-68.545	-2.682	12.815	5.066
607011.898	-97.156	-23.842	-13.709	70.035	-80.466	-3.278	3.278	4.470
607011.906	-93.877	-18.775	-15.497	88.513	-87.917	-3.278	13.411	3.576
607011.914	-103.116	-26.524	-18.775	79.870	-80.764	-4.172	4.172	3.278
607011.922	-100.434	-25.034	-12.517	72.420	-64.969	-23.842	-11.325	-11.623
607011.930	-108.480	-37.253	-16.689	52.452	-58.711	-20.266	-6.855	-8.941
607011.938	-122.190	-52.154	-25.928	26.226	-53.644	-21.160	-14.007	-6.258
607011.946	-122.190	-54.836	-24.736	16.689	-42.021	-26.822	-11.623	-9.239
607011.954	-150.502	-80.764	-48.280	-14.007	-50.366	-32.485	-26.822	-12.517
607011.962	-158.846	-90.599	-51.260	-27.120	-50.068	-48.578	-36.061	-28.610
607011.970	-160.635	-95.367	-51.558	-34.869	-48.876	-49.472	-33.379	-29.504
607011.978	-173.450	-105.202	-64.969	-46.790	-57.817	-45.300	-38.147	-24.736
607011.986	-168.383	-101.924	-66.161	-44.107	-60.201	-52.452	-33.081	-29.206
607011.994	-168.383	-106.692	-66.757	-50.366	-56.028	-46.492	-37.849	-25.332
607011.996	-162.721	-102.222	-61.989	-49.770	-51.856	-50.068	-40.531	-30.696
607012.004	-157.058	-101.328	-61.095	-47.982	-48.578	-47.088	-32.485	-30.696
607012.012	-162.721	-105.500	-67.651	-51.558	-53.644	-42.915	-34.571	-27.418
607012.020	-156.760	-99.540	-71.228	-47.088	-51.558	-41.425	-29.206	-27.418
607012.028	-160.038	-109.375	-74.208	-53.048	-51.856	-33.677	-32.187	-19.968
607012.036	-158.548	-112.355	-68.843	-55.134	-53.346	-43.511	-34.869	-27.418
607012.044	-151.396	-107.586	-69.439	-51.558	-44.405	-35.763	-28.908	-23.842
607012.052	-157.058	-119.209	-78.976	-61.691	-45.002	-38.445	-39.339	-25.630
607012.060	-145.137	-108.778	-74.506	-49.770	-40.829	-43.809	-32.783	-30.398
607012.068	-140.369	-107.288	-73.016	-47.088	-28.014	-40.531	-31.292	-27.120
607012.076	-137.091	-104.010	-68.545	-46.790	-25.928	-48.280	-35.465	-34.273
607012.084	-129.938	-99.242	-64.969	-39.637	-17.583	-46.194	-33.081	-33.379
607012.092	-132.322	-99.540	-68.545	-44.703	-13.113	-46.790	-40.531	-33.379
607012.100	-131.726	-101.328	-73.016	-44.405	-12.219	-48.280	-31.590	-34.869
607012.108	-127.852	-101.328	-72.122	-46.790	7.153	-42.319	-34.571	-31.292
607012.116	-124.276	-98.646	-68.247	-45.002	19.968	-48.578	-35.167	-34.869
607012.124	-119.805	-94.473	-63.181	-47.982	20.862	-44.107	-30.398	-28.908
607012.132	-128.150	-98.646	-69.737	-56.326	16.093	-41.127	-34.273	-25.034
607012.140	-120.997	-92.983	-68.247	-55.432	22.948	-42.319	-25.928	-30.994
607012.148	-125.170	-101.030	-73.314	-66.757	28.908	-39.637	-32.187	-29.504
607012.156	-118.017	-94.175	-72.718	-60.797	30.994	-43.809	-31.292	-29.504
607012.164	-121.891	-99.540	-87.023	-58.115	21.458	-36.955	-26.524	-24.140
607012.172	-124.872	-101.626	-77.188	-58.711	31.292	-40.531	-37.849	-23.544
607012.180	-115.931	-99.242	-79.274	-56.624	39.041	-49.770	-32.485	-29.802
607012.188	-123.680	-103.116	-101.328	-64.671	26.822	-42.021	-35.465	-29.206
607012.196	-115.037	-88.513	-81.956	-50.664	37.849	-48.578	-39.041	-33.975
607012.204	-106.990	-83.745	-67.055	-54.240	61.989	-45.002	-33.081	-26.822
607012.212	-119.209	-96.262	-81.658	-59.009	58.413	-51.260	-45.300	-32.187
607012.215	-114.441	-89.705	-85.533	-55.134	55.730	-55.134	-37.849	-37.849
607012.223	-119.209	-96.560	-94.473	-62.287	48.876	-41.723	-36.955	-27.418
607012.231	-106.990	-81.360	-80.466	-41.723	53.942	-44.405	-35.465	-26.822
607012.239	-90.003	-69.141	-59.605	-35.763	75.102	-40.531	-28.610	-23.842
607012.247	-103.712	-78.380	-75.400	-59.009	75.102	-41.425	-39.041	-25.928
607012.255	-96.858	-67.353	-69.439	-42.617	66.161	-39.637	-30.696	-24.140
607012.263	-92.089	-65.863	-70.333	-38.445	73.314	-30.100	-27.716	-17.285
607012.271	-90.003	-64.373	-75.698	-34.273	84.937	-35.465	-27.716	-20.862
607012.279	-91.493	-70.035	-76.592	-39.637	76.294	-37.551	-25.928	-20.266
607012.287	-101.626	-79.274	-74.208	-58.711	71.824	-40.233	-34.869	-20.564
607012.295	-100.136	-82.850	-78.678	-62.585	73.612	-42.021	-28.312	-25.332
607012.303	-100.136	-81.360	-87.619	-57.817	74.208	-28.610	-26.226	-15.199
607012.311	-93.579	-68.843	-78.082	-45.300	73.910	-34.571	-30.398	-19.968
607012.319	-88.215	-69.141	-78.976	-36.657	65.565	-33.677	-25.332	-19.372
607012.327	-100.434	-80.466	-90.003	-54.240	59.605	-34.571	-28.610	-20.266
607012.335	-84.341	-60.797	-69.737	-33.677	78.380	-35.167	-20.266	-23.842
607012.343	-85.831	-62.585	-71.228	-38.147	76.890	-26.226	-21.458	-14.901
607012.351	-85.533	-60.797	-75.996	-32.187	73.910	-26.524	-19.968	-18.179
607012.359	-77.486	-58.711	-72.122	-29.802	77.784	-25.034	-17.881	-18.477
607012.367	-81.658	-61.095	-76.592	-37.253	76.592	-31.590	-25.332	-22.054
607012.375	-79.572	-61.691	-82.850	-30.696	76.294	-37.253	-19.670	-28.312
607012.383	-87.321	-78.380	-88.513	-45.300	68.545	-28.908	-20.564	-16.689
607012.391	-87.023	-67.055	-88.811	-41.127	60.797	-25.332	-14.305	-13.113
607012.399	-81.062	-61.393	-91.791	-42.617	58.413	-21.756	-9.537	-11.325
607012.407	-74.506	-63.181	-87.023	-28.908	78.678	-24.736	-16.987	-12.219
607012.415	-61.989	-46.194	-61.393	-9.835	89.109	-30.100	-15.795	-17.583
607012.423	-62.585	-45.300	-56.922	-10.729	83.148	-17.285	-12.219	-7.153
607012.431	-66.757	-46.194	-64.671	-13.113	64.671	-21.160	-9.537	-12.815
607012.436	-72.122	-52.750	-75.698	-19.968	64.373	-20.862	-7.451	-13.709
607012.444	-88.811	-70.035	-90.301	-31.888	63.181	-22.948	-18.179	-14.901
607012.452	-75.400	-58.413	-82.552	-28.908	65.565	-20.266	-8.941	-9.835
607012.460	-65.267	-51.558	-75.102	-31.590	68.247	-9.239	-5.662	1.788
607012.468	-59.009	-44.405	-68.545	-18.477	69.737	-18.775	-8.047	-7.749
607012.476	-59.605	-42.319	-64.969	-4.768	68.545	-19.968	-9.537	-12.219
607012.484	-71.228	-53.644	-75.102	-20.564	68.545	-19.968	-15.199	-11.623
607012.492	-64.373	-55.432	-74.804	-23.842	71.526	-22.650	-6.258	-16.391
607012.500	-56.326	-46.492	-72.420	-13.411	71.824	-13.411	-5.066	-9.239
607012.508	-48.280	-37.849	-65.267	-3.576	74.506	-26.226	-13.411	-16.987
607012.516	-50.366	-39.935	-61.691	-7.451	67.353	-30.100	-17.583	-17.881
607012.524	-79.572	-64.969	-91.195	-39.339	45.598	-28.908	-22.650	-16.093
607012.532	-65.565	-52.452	-71.228	-25.928	58.115	-30.398	-15.497	-19.968
607012.540	-52.154	-42.319	-55.134	-14.603	76.592	-26.524	-23.246	-17.285
607012.548	-49.472	-43.213	-57.220	-18.477	82.552	-33.081	-21.756	-22.650
607012.556	-39.935	-39.935	-49.770	-19.372	85.831	-32.783	-18.477	-23.544
607012.564	-47.982	-48.280	-53.346	-30.398	80.168	-29.206	-23.842	-22.054
607012.572	-38.743	-37.253	-44.405	-25.034	83.745	-27.716	-14.305	-22.352
607012.580	-44.405	-43.809	-53.644	-33.677	78.082	-28.312	-21.756	-17.881
607012.588	-44.405	-42.319	-58.115	-28.312	73.910	-38.445	-25.332	-23.544
607012.596	-44.703	-51.260	-55.730	-30.696	62.585	-31.590	-18.775	-17.583
607012.604	-49.472	-55.134	-54.240	-33.677	61.393	-25.332	-16.987	-12.815
607012.612	-48.578	-52.154	-54.836	-37.551	59.903	-28.014	-12.219	-20.266
607012.620	-50.068	-53.346	-59.009	-42.617	57.220	-22.352	-14.603	-14.305
607012.628	-43.511	-39.339	-61.095	-22.352	61.691	-30.398	-17.285	-17.881
607012.636	-39.637	-41.127	-60.499	-18.179	61.989	-31.590	-19.968	-17.285
607012.644	-52.750	-53.644	-75.400	-27.120	54.538	-27.120	-25.034	-14.603
607012.652	-45.896	-55.134	-57.220	-24.438	49.472	-24.438	-13.411	-16.987
607012.656	-56.028	-70.333	-70.333	-43.511	47.088	-19.073	-12.219	-12.517
607012.664	-62.883	-64.969	-78.976	-47.088	48.578	-25.928	-15.795	-15.497
607012.672	-44.703	-47.088	-61.393	-16.987	50.664	-30.696	-17.881	-21.756
607012.680	-49.472	-52.750	-71.526	-4.768	39.041	-29.504	-19.968	-19.670
607012.688	-40.829	-37.551	-71.228	19.073	31.888	-21.160	-5.066	-14.603
607012.696	-37.849	-35.167	-78.678	37.551	23.246	-7.749	0.000	-4.172
607012.704	-41.127	-35.167	-89.705	44.703	6.855	-12.219	2.980	-8.345
607012.712	-38.445	-32.783	-90.301	50.068	-2.384	-5.066	11.027	-1.490
607012.720	-40.531	-36.359	-92.089	54.538	-14.305	-8.941	1.788	-3.278
607012.728	-40.829	-35.465	-103.116	55.432	-20.266	-17.583	3.576	-11.027
607012.736	-53.644	-52.154	-118.911	46.492	-25.332	-8.941	4.172	-5.960
607012.744	-57.220	-60.201	-114.441	40.233	-31.292	-11.325	3.576	-8.941
607012.752	-49.174	-54.836	-120.401	38.147	-35.465	0.298	13.113	1.490
607012.760	-52.750	-62.287	-123.084	36.061	-30.994	0.000	7.749	1.788
607012.768	-43.213	-62.585	-108.182	45.896	-14.007	-2.384	12.517	0.596
607012.776	-48.280	-76.294	-113.547	33.081	-14.305	6.855	9.835	7.749
607012.784	-52.750	-77.188	-114.441	25.630	-22.948	6.855	11.921	5.364
607012.792	-52.452	-72.420	-121.891	28.312	-21.160	16.093	24.438	14.603
607012.800	-53.346	-73.612	-123.382	27.120	-22.054	13.113	19.073	15.199
607012.808	-44.405	-67.055	-109.971	38.743	-11.027	5.662	22.054	6.258
607012.816	-47.684	-75.698	-115.633	34.273	-2.682	7.749	15.795	8.047
607012.824	-48.876	-85.235	-118.017	27.418	-3.576	5.364	14.603	2.980
607012.832	-50.068	-87.917	-123.382	17.583	-2.682	8.941	22.650	9.239
607012.840	-55.730	-86.129	-130.832	16.391	-7.451	1.490	15.199	3.576
607012.848	-50.664	-82.552	-130.236	23.544	-7.153	-7.451	16.391	-5.960
607012.856	-52.452	-81.956	-137.389	18.477	-8.941	-0.298	11.027	0.298
607012.864	-53.048	-85.235	-132.322	18.179	-8.047	-6.557	10.431	-6.557
607012.872	-51.558	-89.407	-126.660	22.650	-6.557	-2.682	14.603	-4.470
607012.877	-53.048	-86.129	-129.044	18.775	-5.066	0.298	11.027	1.490
607012.885	-38.147	-75.102	-112.951	21.160	9.537	1.788	22.054	3.874
607012.893	-40.233	-74.804	-115.931	20.266	10.133	2.384	15.795	4.172
607012.901	-40.531	-81.956	-117.719	22.948	13.113	-9.537	11.623	-8.941
607012.909	-35.763	-87.023	-115.931	14.901	19.372	-1.192	19.968	-3.278
607012.917	-48.876	-92.685	-128.150	11.027	9.239	-10.431	9.537	-7.451
607012.925	-39.637	-75.996	-123.978	25.928	12.517	-17.583	6.855	-14.603
607012.933	-40.233	-73.016	-122.488	22.352	13.411	-11.623	-0.894	-10.431
607012.941	-41.425	-78.678	-120.103	22.352	9.537	-15.497	-0.298	-13.709
607012.949	-30.100	-71.228	-109.971	18.775	18.477	-4.470	10.729	-2.980
607012.957	-31.590	-66.459	-116.229	20.564	25.332	-8.047	2.384	-1.490
607012.965	-33.677	-74.804	-111.461	18.179	21.160	-20.266	0.596	-13.411
607012.973	-42.915	-78.082	-115.335	-2.980	10.133	-11.027	-0.596	-6.855
607012.981	-33.081	-64.373	-114.143	27.120	11.325	-11.921	2.980	-7.749
607012.989	-25.332	-64.075	-111.163	35.167	14.007	-9.239	3.278	-7.749
607012.997	-43.511	-81.956	-123.978	8.643	5.662	-21.458	-11.623	-16.093
607013.005	-33.379	-78.082	-111.759	7.749	14.603	-18.477	-1.788	-15.795
607013.013	-39.041	-74.208	-128.746	9.835	2.086	-15.497	-7.749	-12.815
607013.021	-25.034	-57.817	-108.778	15.497	18.179	-11.325	7.749	-3.576
607013.029	-3.874	-44.107	-75.698	30.994	44.405	8.643	26.822	11.325
607013.037	-7.451	-46.194	-87.917	25.928	40.233	2.384	11.325	5.066
607013.045	-5.662	-45.598	-94.771	37.849	25.332	-13.411	4.470	-11.623
607013.053	4.172	-37.849	-83.745	44.703	16.689	1.788	13.709	1.192
607013.061	-0.298	-43.809	-84.341	39.041	14.305	-9.835	7.451	-6.258
607013.069	17.285	-32.187	-65.565	57.220	37.253	-4.172	14.007	-2.682
607013.077	26.226	-12.517	-58.413	64.671	44.405	-5.960	7.451	-5.662
607013.085	40.233	5.662	-50.962	90.301	54.836	-4.470	12.517	-4.768
607013.093	42.021	-2.384	-52.452	88.513	60.499	2.086	9.835	1.192
607013.114	42.319	-2.980	-42.319	78.082	60.797	-2.980	11.921	-4.768
607013.122	48.280	-8.643	-40.233	65.267	65.863	11.623	34.571	11.623
607013.130	44.703	-8.643	-42.319	47.386	60.797	16.391	33.379	18.179
607013.138	51.856	5.662	-18.775	81.360	69.439	-2.384	16.391	-0.298
607013.146	47.386	5.364	-23.544	100.732	71.824	2.980	10.431	1.788
607013.154	35.465	-6.855	-37.551	93.281	60.499	-8.345	5.066	-9.537
607013.162	39.041	-10.431	-35.465	83.148	66.161	-3.874	11.623	-3.278
607013.170	30.696	-22.352	-39.935	67.353	66.757	-1.490	10.729	2.384
607013.178	36.657	-17.285	-34.869	70.333	71.824	0.596	23.246	5.364
607013.186	38.147	-13.411	-27.716	72.122	79.870	15.795	27.120	15.795
607013.194	45.300	-6.557	-20.564	79.870	87.619	13.113	27.418	13.709
607013.202	44.107	-5.066	-22.948	77.188	83.148	9.239	23.246	10.133
607013.210	25.928	-13.411	-38.147	66.757	69.439	-1.192	5.364	-2.980
607013.218	40.531	2.086	-21.458	82.850	88.513	0.298	17.583	0.894
607013.226	39.935	-3.874	-19.372	68.843	90.599	5.960	15.199	9.239
607013.234	34.869	-7.153	-24.140	74.804	84.341	-2.384	13.113	1.788
607013.242	32.783	-8.345	-27.716	73.910	84.043	-0.894	17.285	3.576
607013.250	19.670	-16.391	-37.551	58.115	76.592	-10.431	-1.192	0.596
607013.258	31.292	-8.345	-29.206	63.777	84.937	-8.941	5.066	-1.788
607013.266	26.524	-17.285	-33.677	54.836	80.168	-3.874	3.278	-0.596
607013.274	24.140	-16.093	-34.571	52.452	75.400	-7.749	3.874	-5.364
607013.282	31.888	-5.662	-33.081	50.962	77.784	4.172	17.583	8.345
607013.290	30.398	-9.537	-33.379	50.962	81.360	4.470	14.901	11.325
607013.298	36.955	-0.894	-26.524	70.930	89.705	1.490	24.140	4.470
607013.306	16.391	-14.603	-51.856	50.068	70.333	-3.576	6.258	-1.490
607013.314	13.709	-8.941	-53.644	56.326	60.499	-17.285	-3.874	-13.709
607013.322	15.497	-16.093	-46.492	54.538	61.691	-15.795	-5.960	-12.815
607013.330	17.583	-21.160	-35.167	36.955	69.439	-4.172	-5.066	-0.894
607013.333	24.438	-14.901	-35.465	38.445	68.843	-7.451	2.980	-4.470
607013.341	20.564	-9.835	-45.896	41.425	66.161	-2.682	0.894	-0.298
607013.349	39.041	7.451	-30.994	58.413	83.447	4.768	15.497	8.047
607013.357	33.081	6.258	-41.425	63.181	67.055	-4.470	9.537	-1.192
607013.365	21.160	-6.557	-50.068	56.624	54.538	-18.179	-10.133	-13.411
607013.373	33.975	0.894	-31.888	67.353	68.843	-16.987	-1.192	-14.007
607013.381	34.869	-0.596	-34.273	55.730	71.824	-6.557	-2.086	-2.980
607013.389	25.630	-5.662	-67.651	52.750	56.028	-16.987	-6.258	-8.643
607013.397	33.379	-2.682	-60.499	54.836	66.161	-6.557	3.576	0.298
607013.405	47.982	22.054	-14.603	67.651	81.062	1.788	11.027	6.258
607013.413	45.002	16.093	-16.093	74.506	80.168	-8.941	9.537	-6.855
607013.421	25.332	-17.583	-38.743	34.273	75.102	-18.179	-13.411	-15.497
607013.429	38.445	-7.153	-28.908	46.194	82.850	-24.438	-9.537	-19.670
607013.437	43.213	5.662	-22.352	75.996	91.493	-10.729	2.384	-7.153
607013.445	36.955	0.596	-30.994	71.228	91.195	-4.768	2.086	-1.490
607013.453	31.292	-8.345	-39.339	51.260	76.294	-20.862	-2.980	-17.583
607013.461	18.477	-20.266	-45.300	34.571	57.817	-18.179	-13.113	-17.881
607013.469	28.908	-11.325	-35.763	51.260	64.075	-17.285	-4.768	-15.497
607013.477	27.418	-15.795	-39.339	43.511	61.393	-13.709	-2.384	-13.411
607013.485	22.650	-20.564	-47.088	33.975	55.432	-11.921	-6.855	-7.749
607013.493	29.802	-17.285	-42.915	48.876	54.240	-12.815	4.768	-9.835
607013.501	21.160	-35.465	-57.220	39.041	45.300	-5.960	4.768	-5.662
607013.509	22.054	-24.736	-63.479	30.398	40.531	-8.643	7.153	-7.153
607013.517	17.881	-33.975	-78.976	21.458	16.689	-5.066	2.384	-6.855
607013.525	-0.596	-51.558	-90.003	9.835	-13.709	-10.431	-6.258	-9.537
607013.533	-10.729	-71.824	-82.850	-10.729	5.364	-10.431	3.278	-12.815
607013.541	12.219	-53.942	-55.134	8.941	34.571	-13.709	-9.537	-15.795
607013.549	65.267	-4.768	-2.682	53.346	69.737	-6.557	3.576	-9.537
607013.569	100.136	27.120	20.862	72.420	97.156	8.345	17.881	5.364
607013.577	98.646	35.763	-3.874	57.518	78.082	8.345	11.623	11.921
607013.585	128.746	55.134	28.908	62.287	95.069	14.901	26.822	16.093
607013.593	142.455	56.624	88.811	39.935	127.554	5.364	10.729	4.172
607013.601	137.389	69.141	80.168	60.201	117.421	-16.689	-7.451	-19.073
607013.609	144.839	64.075	70.632	76.294	107.586	-10.133	-2.682	-13.113
607013.617	133.216	53.942	51.260	50.366	112.653	-8.047	-6.557	-11.921
607013.625	133.514	53.048	47.386	48.876	110.865	-7.749	0.000	-14.603
607013.633	122.488	37.551	44.703	30.696	107.288	8.345	4.470	4.172
607013.641	114.441	27.120	51.260	12.219	107.586	0.894	6.258	-0.894
607013.649	97.156	11.325	35.167	26.226	101.030	-1.788	-2.384	-5.364
607013.657	77.486	-6.855	9.239	20.266	90.003	-8.643	-12.219	-12.517
607013.665	81.658	-6.557	20.266	16.987	95.069	-8.047	-2.086	-11.921
607013.673	73.016	-21.756	13.113	6.258	91.195	-1.490	-4.768	-6.557
607013.681	68.247	-17.583	1.490	4.172	78.082	-8.941	-6.557	-13.113
607013.689	63.181	-27.120	-7.153	-13.709	74.506	-0.596	2.682	-4.470
607013.697	61.393	-26.524	-11.325	-20.862	71.526	1.192	4.172	1.788
607013.705	68.545	-17.881	-3.576	4.172	73.016	1.490	9.239	2.384
607013.713	55.134	-39.041	-12.815	-9.239	50.962	-7.749	-6.855	-8.643
607013.721	57.518	-42.021	-8.047	-24.438	52.154	-26.226	-18.179	-26.524
607013.729	71.228	-11.325	-9.835	6.557	41.425	-7.153	-0.298	-9.537
607013.737	80.168	3.874	2.682	17.881	42.617	5.960	10.431	4.768
607013.745	102.520	14.901	47.982	30.696	83.745	1.192	14.305	-2.980
607013.753	89.109	11.623	27.716	14.603	74.506	-1.490	1.192	-3.278
607013.761	74.804	2.980	6.557	6.557	52.452	-16.689	-6.855	-18.179
607013.769	76.294	-3.874	8.941	9.239	35.763	-13.411	-6.258	-18.775
607013.777	81.658	1.192	29.504	3.874	47.982	-18.179	-13.113	-21.756
607013.785	89.705	10.133	40.531	25.630	58.115	-10.133	-1.788	-16.391
607013.789	75.400	-2.682	-0.298	16.689	26.226	0.000	-2.980	-4.172
607013.797	69.737	-8.643	3.874	-8.643	17.881	-8.047	-6.258	-8.941
607013.805	84.639	16.689	33.379	8.047	33.379	-9.239	-9.537	-10.431
607013.813	85.533	19.073	34.869	18.775	28.908	-7.749	-9.835	-7.451
607013.821	92.983	10.729	35.763	8.643	31.888	-3.874	1.788	-7.451
607013.829	91.493	19.073	35.465	28.312	34.273	-7.153	-13.113	-8.643
607013.837	93.281	28.014	34.571	45.598	16.093	-9.835	-8.941	-11.027
607013.845	103.116	36.955	36.359	33.081	16.093	4.172	2.980	-1.192
607013.853	100.732	25.630	50.068	31.292	12.517	-0.894	-0.894	-3.874
607013.861	101.328	25.034	55.730	33.975	5.364	-4.768	3.874	-8.345
607013.869	92.089	27.120	37.551	18.179	-1.490	3.278	2.980	-2.086
607013.877	88.215	23.842	33.975	20.266	-16.987	-2.682	0.894	-5.960
607013.885	102.222	37.253	40.531	33.975	-2.384	2.682	5.364	-4.172
607013.893	100.136	33.379	47.386	33.975	7.749	-2.980	-0.596	-8.643
607013.901	120.103	60.797	63.479	59.307	7.749	14.305	25.332	9.239
607013.909	106.394	44.107	48.578	41.127	-11.623	5.960	9.239	-0.596
607013.917	88.513	21.160	49.472	18.477	-30.398	-22.352	-11.921	-30.100
607013.925	92.387	32.485	39.637	34.571	-51.856	-15.199	-10.133	-25.928
607013.933	97.752	42.915	45.300	34.273	-19.968	-19.670	-19.372	-28.908
607013.941	108.480	52.154	64.969	40.531	-20.266	-19.073	-8.941	-24.736
607013.949	142.753	84.341	108.182	76.294	0.894	-13.709	-16.391	-19.073
607013.957	199.378	143.647	168.979	133.812	56.326	-3.874	4.172	-10.133
607013.965	249.445	190.139	215.173	169.575	48.578	9.239	17.285	-0.298
607013.973	307.262	248.849	259.578	223.219	50.068	15.795	22.352	7.153
607013.981	385.046	335.872	339.150	297.129	90.301	17.285	38.147	9.239
607013.989	419.617	379.384	366.569	323.057	97.752	15.795	30.100	7.749
607013.997	441.968	408.590	369.847	331.998	84.043	14.603	27.120	11.027
607014.005	481.606	446.439	438.094	388.622	114.441	23.544	30.100	15.795
607014.010	479.221	460.148	440.180	424.683	108.778	17.881	14.603	10.729
607014.018	464.320	447.929	417.233	413.954	102.520	14.007	25.630	8.345
607014.026	419.319	397.563	382.960	371.635	87.619	12.517	16.689	6.557
607014.034	395.477	364.482	335.872	327.229	75.698	31.590	37.551	28.908
607014.042	354.946	315.607	312.328	282.228	55.730	27.120	33.081	21.458
607014.050	299.513	262.260	280.142	248.551	22.650	9.835	5.364	8.643
607014.058	260.174	216.365	230.968	192.225	-12.219	-5.662	0.596	-18.775
607014.066	205.040	157.356	168.085	120.997	-26.524	9.835	23.246	0.298
607014.074	186.563	135.601	154.972	114.739	-33.081	-3.278	9.537	-8.345
607014.082	184.476	128.746	159.144	115.037	-52.154	9.537	8.941	1.490
607014.090	171.959	128.150	138.879	121.593	-53.942	28.610	29.504	30.100
607014.098	135.303	100.434	98.646	108.480	-109.076	10.431	21.160	5.364
607014.106	92.387	49.770	51.856	52.750	-126.064	-1.490	-5.364	-10.729
607014.114	76.592	43.511	36.061	27.418	-128.150	-4.172	-4.172	-4.172
607014.122	91.195	60.499	58.711	67.055	-159.740	19.968	13.113	16.391
607014.130	79.274	41.127	56.028	33.379	-111.461	22.054	16.093	17.285
607014.138	31.292	-5.960	-7.153	-1.192	-185.072	-12.219	-2.086	-25.034
607014.146	19.968	-8.047	0.894	-5.662	-189.841	-11.027	-15.497	-16.391
607014.154	16.689	-11.921	10.729	-16.093	-143.051	-10.729	-2.980	-9.239
607014.162	16.987	-13.709	-16.987	1.490	-222.325	-5.364	0.298	-11.623
607014.170	8.643	-11.623	-13.113	-14.305	-204.444	-11.921	-12.517	-15.497
607014.178	21.756	-2.086	8.643	16.093	-204.444	0.000	9.239	-5.364
607014.186	4.172	-21.756	-10.729	-5.662	-196.099	4.470	4.172	5.662
607014.194	-8.941	-23.246	-33.081	-13.709	-244.081	-7.749	-3.874	-1.788
607014.202	4.470	-16.689	-7.451	-15.795	-244.677	-7.451	-1.490	-12.517
607014.210	-5.364	-23.544	-13.411	-26.524	-225.008	-14.007	-7.749	-13.113
607014.218	10.729	-20.862	10.729	-17.285	-175.834	-8.047	6.855	-11.027
607014.226	-2.682	-33.379	-6.557	-28.908	-236.332	-12.219	-7.451	-14.007
607014.229	-2.682	-16.987	-16.093	-6.258	-247.955	-18.477	-10.431	-11.027
607014.237	-7.749	-25.034	-38.445	-13.411	-255.108	-5.960	4.768	-3.278
607014.245	-13.411	-34.869	-25.630	-36.061	-272.989	-6.557	0.000	-4.768
607014.253	2.980	-22.352	4.470	-28.014	-252.724	-5.662	7.153	-7.451
607014.261	-28.908	-44.107	-27.120	-38.743	-270.903	-4.172	-2.086	3.278
607014.269	4.768	-6.855	0.596	4.470	-255.108	-5.364	2.384	-8.047
607014.277	56.326	35.167	45.300	56.624	-211.596	5.960	16.689	-11.027
607014.285	55.432	39.041	32.783	67.055	-243.485	5.662	12.219	-3.278
607014.293	71.526	52.452	42.021	81.956	-263.155	17.881	26.226	13.113
607014.301	70.930	43.213	37.849	77.188	-280.738	23.544	26.524	12.219
607014.309	70.930	39.935	35.763	68.843	-269.115	6.855	15.795	-4.172
607014.317	66.161	32.187	17.881	57.518	-292.659	15.795	18.179	1.788
607014.325	82.254	43.809	55.134	70.035	-253.320	37.551	37.551	26.226
607014.333	64.969	27.418	36.359	50.664	-277.758	25.928	36.955	16.689
607014.341	47.386	16.689	14.305	56.028	-285.804	12.815	9.239	8.047
607014.349	44.703	9.835	10.133	47.982	-306.368	-0.894	0.298	-13.113
607014.357	46.194	11.921	11.325	39.637	-275.671	10.431	12.517	-2.980
607014.365	37.551	2.980	1.788	38.445	-287.294	18.775	20.266	8.345
607014.373	46.790	6.557	14.603	29.802	-292.957	14.305	20.862	1.192
607014.381	32.187	-8.047	-2.384	27.716	-292.361	16.987	12.219	3.576
607014.389	29.504	-9.537	-2.086	19.968	-292.957	10.431	8.047	-1.788
