Timestamp	AFz	AF3	AF4	AF7	AF8	Pz	P3	P4	2023-07-25 09:47:33.550	fs=125
64477.756	-8.047	-0.298	-31.292	28.014	-23.246	2.086	2.682	4.172
64477.764	-1.192	2.682	-31.292	32.485	-12.815	5.662	7.153	-0.596
64477.772	7.451	13.411	-26.524	36.657	-7.153	13.709	18.179	20.862
64477.780	-1.192	0.000	-23.544	22.650	-13.113	8.047	8.643	-0.298
64477.788	4.768	3.874	-30.100	26.524	-16.093	15.199	11.623	22.054
64477.796	2.086	1.490	-30.696	24.438	-19.372	10.729	10.133	15.199
64477.804	-6.855	-9.537	-34.869	21.458	-16.391	6.557	8.643	-4.768
64477.812	0.000	-2.682	-34.273	27.418	-13.709	13.113	11.027	15.199
64477.820	-3.576	-5.066	-28.312	22.948	-13.113	11.325	8.941	-6.258
64477.828	-1.192	-3.278	-29.206	26.226	-11.325	16.093	15.795	15.199
64477.836	-11.623	-8.643	-35.763	13.709	-24.438	4.172	3.874	3.576
64477.844	-15.497	-16.987	-45.300	8.941	-33.379	-0.298	-2.682	-5.960
64477.852	-6.258	-8.047	-36.955	15.497	-23.842	7.153	7.451	13.411
64477.860	-8.643	-11.027	-24.736	15.199	-17.881	2.086	3.278	-8.941
64477.868	8.643	2.086	-14.901	32.783	-9.239	14.901	13.411	10.133
64477.876	5.364	2.682	-19.073	29.504	-12.219	10.133	9.537	0.596
64477.884	1.192	-4.470	-23.246	22.352	-11.027	5.960	7.153	-11.623
64477.892	3.278	3.278	-28.014	25.332	-16.391	15.497	17.285	14.007
64477.900	-3.576	-6.557	-31.590	16.987	-19.372	5.364	5.066	-10.431
64477.908	11.921	7.749	-14.901	25.630	-9.835	12.517	7.749	9.239
64477.916	10.133	5.066	-17.285	27.418	-9.835	10.431	5.960	3.874
64477.924	14.901	4.768	-12.517	37.849	-4.172	14.007	16.093	-3.576
64477.932	14.007	13.411	-16.391	34.571	-10.133	12.219	13.411	14.901
64477.940	-1.192	0.894	-30.696	16.987	-22.948	-5.066	-4.470	-17.583
64477.948	7.153	7.749	-27.716	32.783	-22.054	3.874	1.788	4.172
64477.956	7.153	6.258	-19.073	35.167	-18.477	5.960	5.662	2.086
64477.964	5.364	12.517	-16.093	40.531	-14.901	5.364	5.364	-4.470
64477.972	16.391	21.160	-19.670	43.809	-15.795	8.941	7.451	16.689
64477.981	9.239	-0.298	-25.332	27.120	-28.312	-3.874	-2.384	-9.835
64477.989	9.239	5.066	-27.120	29.802	-26.822	6.855	2.682	14.007
64477.997	9.537	7.153	-20.862	28.908	-18.775	8.643	7.749	2.384
64478.005	3.278	-0.894	-25.332	25.034	-28.312	2.384	1.490	-12.219
64478.013	12.815	-1.490	-24.438	29.802	-21.458	12.815	11.027	13.709
64478.021	14.007	2.682	-11.921	34.869	-15.199	11.623	15.199	-3.576
64478.029	16.689	14.603	-17.285	41.723	-17.285	16.987	17.881	12.815
64478.037	4.172	2.980	-20.862	33.975	-13.113	9.239	11.921	6.557
64478.045	9.537	2.980	-19.073	30.994	-16.391	6.557	8.643	-2.682
64478.053	16.689	10.729	-19.073	41.425	-18.179	11.921	14.007	16.689
64478.061	1.788	0.298	-27.120	24.140	-26.822	-1.192	1.192	-6.855
64478.069	7.153	9.537	-28.312	28.014	-29.504	4.470	3.576	14.007
64478.077	2.980	3.278	-21.458	24.736	-25.630	-0.298	0.000	1.490
64478.085	5.066	0.000	-19.372	30.994	-21.458	4.768	5.662	-3.874
64478.093	5.662	3.874	-29.802	33.677	-24.736	10.431	11.027	15.497
64478.101	-1.490	-2.384	-27.120	27.716	-28.610	2.980	5.662	-6.258
64478.109	10.729	7.153	-22.650	36.955	-25.332	7.749	10.729	18.179
64478.117	6.557	1.490	-24.736	30.398	-27.716	0.894	3.278	10.729
64478.125	5.960	0.596	-21.756	33.677	-22.948	3.278	2.682	-0.596
64478.133	13.113	9.537	-16.689	37.253	-16.391	16.689	13.411	17.583
64478.141	-4.172	-13.113	-23.544	21.160	-27.716	-2.682	-5.066	-11.325
64478.149	6.258	5.066	-25.928	33.081	-28.312	6.855	3.874	11.325
64478.157	2.086	9.537	-28.014	36.359	-28.610	4.470	2.086	6.855
64478.165	2.980	1.192	-20.266	31.292	-25.034	-1.490	-2.980	-3.278
64478.173	3.278	4.172	-25.928	29.206	-25.928	0.894	-0.298	17.881
64478.181	-1.788	-8.345	-25.034	22.352	-31.292	-5.960	-7.451	-7.749
64478.189	5.960	2.086	-27.418	32.485	-25.928	5.364	3.576	12.219
64478.197	2.086	6.855	-22.650	29.504	-29.206	5.066	3.874	11.623
64478.218	4.470	6.557	-21.160	31.888	-29.206	2.384	3.576	2.980
64478.226	1.192	3.278	-37.253	32.783	-35.465	-0.596	-1.192	19.372
64478.234	-7.749	-6.258	-34.869	27.716	-39.637	-8.941	-7.749	-9.239
64478.242	4.470	-1.788	-30.100	29.504	-43.213	-7.153	-8.047	10.729
64478.250	-1.490	-5.960	-29.206	24.736	-42.617	-14.603	-12.219	0.596
64478.258	-2.384	-7.749	-29.206	21.458	-42.617	-8.941	-5.960	-13.411
64478.266	-3.278	-8.941	-36.061	20.862	-50.068	-6.258	-5.364	10.431
64478.274	-9.835	-8.047	-38.445	28.610	-45.896	-14.901	-11.623	-10.729
64478.282	-0.298	-2.086	-38.743	35.465	-52.154	-11.921	-7.451	4.470
64478.290	-10.133	-10.729	-43.213	28.312	-60.499	-13.411	-7.451	-5.066
64478.298	-11.325	-15.497	-49.174	24.140	-61.095	-11.027	-7.153	-11.623
64478.306	-9.537	-11.623	-55.730	21.458	-60.201	-4.172	-1.788	11.325
64478.314	-14.305	-18.775	-48.578	20.862	-58.115	-14.305	-8.941	-14.305
64478.322	1.192	-6.258	-46.194	33.975	-43.511	-0.894	5.662	6.855
64478.330	-11.921	-12.815	-46.194	12.517	-49.174	-7.153	-3.874	5.066
64478.338	-20.266	-17.285	-47.982	8.941	-47.386	-11.325	-11.027	-8.643
64478.346	-10.431	-13.411	-49.174	13.411	-36.657	-4.768	-4.172	13.113
64478.354	-28.610	-31.590	-58.413	-2.980	-35.763	-14.901	-12.219	-19.372
64478.362	-19.968	-28.014	-52.154	-3.576	-31.590	-6.855	-4.172	-2.384
64478.370	-25.332	-25.630	-56.922	-9.835	-33.379	-9.239	-7.749	0.298
64478.378	-26.822	-22.948	-52.452	-3.278	-30.398	-11.027	-10.431	-9.239
64478.386	-17.583	-20.564	-44.703	-1.192	-19.372	-1.490	-0.298	10.431
64478.394	-19.372	-22.352	-46.492	-7.153	-22.352	-7.153	-2.086	-14.007
64478.402	-12.219	-16.987	-51.260	-3.874	-24.140	-4.172	1.490	7.749
64478.410	-10.431	-20.266	-40.531	-0.298	-10.133	0.000	5.960	7.749
64478.418	-12.219	-19.372	-34.571	-0.298	-5.662	-4.768	0.894	-4.768
64478.426	-10.729	-12.219	-33.379	2.086	-13.113	-1.490	1.788	9.239
64478.434	-17.285	-25.034	-39.041	-8.047	-19.670	-9.239	-5.066	-10.133
64478.421	-10.133	-18.775	-45.896	-3.874	-18.179	-3.278	-1.192	16.689
64478.429	-20.266	-27.120	-47.088	-10.133	-25.630	-8.643	-6.258	7.749
64478.437	-14.901	-20.862	-37.253	-3.576	-22.054	-1.490	0.596	-5.364
64478.445	-5.364	-14.603	-42.021	-0.298	-20.862	11.325	11.027	17.881
64478.453	-14.305	-27.418	-40.829	-5.364	-17.881	2.086	7.153	-5.364
64478.461	-9.239	-10.729	-33.677	11.623	-10.431	14.007	16.987	13.709
64478.469	-19.670	-14.901	-38.445	4.768	-21.160	8.941	9.537	7.153
64478.477	-4.172	-9.537	-31.292	10.729	-24.438	10.729	13.113	4.172
64478.485	-0.596	-0.298	-33.081	14.901	-18.179	16.391	17.583	28.014
64478.493	-15.795	-18.179	-38.445	-1.490	-20.564	2.980	6.557	-9.835
64478.501	-9.239	-10.729	-32.485	8.643	-17.881	12.219	13.709	13.113
64478.509	-12.517	-14.901	-33.975	8.643	-25.034	8.047	9.537	11.623
64478.517	-14.603	-21.458	-32.783	2.384	-34.869	1.490	4.172	-6.557
64478.525	-6.557	-8.047	-36.061	8.941	-27.120	11.027	11.325	13.411
64478.533	-23.842	-22.948	-43.809	-2.086	-32.783	-0.596	-0.298	-12.517
64478.541	-23.544	-20.266	-54.240	0.000	-37.253	2.384	-0.298	8.345
64478.549	-25.332	-26.524	-46.790	-4.172	-44.703	-4.768	-8.643	3.278
64478.557	-25.332	-29.802	-40.233	-4.470	-41.425	-4.768	-5.066	-10.729
64478.565	-11.921	-19.968	-39.339	8.047	-28.610	9.537	7.749	14.901
64478.573	-20.266	-29.504	-47.684	3.874	-31.590	0.894	0.298	-3.874
64478.581	-13.113	-16.987	-46.790	4.768	-34.869	0.894	0.298	8.941
64478.589	-10.431	-16.391	-29.206	6.855	-19.670	4.470	4.768	9.239
64478.597	-15.199	-19.073	-30.994	9.239	-16.689	5.066	5.960	-1.490
64478.605	-6.557	-8.047	-25.332	14.305	-19.968	10.431	7.153	22.650
64478.613	-6.557	-11.325	-25.034	8.643	-18.775	2.682	-1.490	-4.172
64478.621	3.874	-4.172	-25.034	15.795	-16.093	9.239	3.576	13.113
64478.629	-4.768	-10.431	-27.120	3.874	-17.881	4.172	0.596	0.000
64478.637	-8.643	-16.093	-30.398	0.596	-22.054	-0.298	-2.086	-10.729
64478.646	-3.278	-13.411	-25.928	2.384	-13.709	0.298	-1.192	12.815
64478.654	-8.047	-12.219	-27.716	6.855	-12.517	1.788	0.298	-7.749
64478.662	-0.298	-8.941	-27.716	12.815	-15.199	8.941	6.855	9.835
64478.670	-13.113	-20.564	-35.465	-5.066	-25.630	-3.576	-4.470	0.596
64478.678	-15.199	-18.775	-34.273	-8.941	-25.332	-6.855	-7.451	-14.305
64478.686	-13.709	-17.285	-38.147	-5.364	-21.160	-0.894	-3.278	6.557
64478.694	-14.603	-29.802	-29.504	-14.007	-18.477	-7.451	-11.623	-11.325
64478.702	-6.855	-17.881	-30.994	4.172	-20.862	2.086	-4.470	11.325
64478.710	-14.901	-19.968	-37.253	0.894	-32.485	-2.980	-6.258	3.874
64478.718	-10.133	-17.583	-33.379	-0.596	-24.438	-0.596	-1.192	-9.239
64478.726	-5.364	-4.768	-34.571	5.960	-19.968	5.066	3.278	14.007
64478.734	-13.411	-17.285	-30.100	-2.980	-22.650	-4.172	-2.980	-16.093
64478.742	-3.576	-12.219	-19.372	8.047	-16.093	5.662	6.258	2.980
64478.750	0.298	-2.384	-17.285	18.775	-11.921	10.729	11.027	6.557
64478.758	3.576	-0.894	-15.795	14.007	-11.921	6.855	5.662	-8.345
64478.766	1.192	-3.278	-27.120	8.345	-18.477	4.768	0.894	10.729
64478.774	-15.199	-15.795	-33.677	0.298	-27.120	-6.258	-6.557	-14.901
64478.782	-2.086	-8.047	-21.458	15.199	-21.160	5.960	2.980	2.086
64478.790	0.894	-10.431	-21.458	11.027	-25.928	11.027	7.749	2.682
64478.798	-3.576	-11.027	-25.928	9.835	-22.352	7.451	8.047	-3.874
64478.806	4.768	-1.788	-25.928	17.285	-16.391	8.941	10.133	13.411
64478.814	1.192	4.768	-16.391	18.179	-17.285	1.490	1.788	-10.431
64478.822	22.352	11.325	9.835	22.650	-6.855	7.749	5.662	3.874
64478.830	23.246	7.451	12.219	19.670	-6.855	4.172	3.874	2.384
64478.838	19.073	9.239	1.788	21.756	-8.643	2.980	4.768	-9.239
64478.846	16.689	9.239	-9.835	21.458	-3.576	7.749	7.451	14.603
64478.854	-5.960	-11.027	-18.477	5.364	-20.564	-7.153	-9.239	-14.007
64478.862	10.133	8.643	-9.537	23.544	-15.497	6.557	2.682	3.874
64478.870	7.451	7.451	-10.431	23.246	-20.564	5.066	4.768	3.278
64478.878	15.199	5.662	-3.874	21.458	-9.239	8.643	8.345	-2.682
64478.886	19.372	7.451	-6.557	21.458	-3.278	11.027	8.047	19.073
64478.894	4.768	-2.384	-15.497	15.497	-15.199	1.788	-1.490	-14.603
64478.902	8.047	2.086	-15.497	20.862	-18.179	10.133	8.345	4.768
64478.910	5.364	-3.874	-15.497	15.795	-17.285	5.960	7.749	-1.490
64478.918	1.788	-8.345	-13.709	15.497	-11.623	-0.298	0.596	-17.881
64478.926	5.066	-5.066	-15.199	17.285	-13.113	0.894	0.000	2.980
64478.934	-3.874	-8.345	-14.603	15.199	-15.497	-2.384	-1.788	-13.411
64478.942	9.239	1.490	-12.517	25.332	-19.670	7.451	4.768	7.153
64478.950	0.596	-4.470	-10.431	17.583	-21.160	-2.682	-5.364	-1.788
64478.958	-0.596	-6.855	-16.391	15.497	-22.352	-4.470	-5.066	-12.219
64478.966	4.470	-0.596	-18.477	15.199	-14.603	2.980	0.596	8.345
64478.974	-5.364	-10.729	-20.266	13.411	-22.948	-0.596	-2.682	-16.093
64478.982	7.749	0.894	-13.709	25.034	-20.564	11.623	9.835	1.490
64478.990	-3.278	-8.047	-7.451	15.199	-16.689	2.086	4.172	-5.960
64478.998	-4.470	-9.835	-13.411	14.305	-17.881	0.298	1.490	-10.431
64479.006	0.000	4.470	-25.332	22.650	-24.736	6.557	5.066	11.623
64479.014	-8.941	-5.960	-20.564	13.411	-25.928	-3.278	-0.894	-19.670
64479.022	5.364	-2.384	-13.709	21.160	-18.179	4.470	5.960	0.298
64479.030	-2.980	-11.027	-20.564	12.219	-24.736	-0.894	0.298	-2.384
64479.038	-8.345	-9.835	-19.073	8.345	-26.822	-10.133	-9.835	-23.544
64479.046	7.749	8.643	-12.219	26.524	-15.199	-1.490	-0.894	0.000
64479.054	5.066	0.894	-10.729	21.458	-9.239	-8.047	-5.960	-16.093
64479.062	14.305	3.576	2.086	30.398	-5.066	-2.980	-3.576	-0.298
64479.070	10.133	5.662	0.298	27.418	-12.219	-5.364	-5.960	-5.960
64479.078	-3.576	-6.855	-11.921	12.815	-25.630	-17.285	-16.093	-20.862
64479.086	-2.980	0.894	-21.160	11.921	-24.438	-14.007	-12.219	1.192
64479.096	-2.682	-5.960	-28.610	9.835	-25.928	-18.775	-16.689	-25.332
64479.104	15.199	6.855	-6.855	25.928	-17.881	-4.470	-1.490	-6.855
64479.112	5.960	4.470	3.874	22.650	-14.007	-5.662	-1.788	-4.172
64479.120	-5.066	-8.643	-7.153	11.027	-22.054	-3.874	-1.788	-12.517
64479.128	0.894	-3.874	-17.583	17.583	-24.140	0.894	5.066	5.066
64479.136	8.047	3.576	-7.749	33.081	-24.140	-3.576	0.894	-20.564
64479.144	0.000	0.894	-29.802	38.445	-43.213	8.643	10.431	2.980
64479.152	-22.352	-16.987	-54.836	30.994	-71.228	0.596	3.874	-2.682
64479.160	-36.657	-30.994	-70.035	23.246	-88.215	-0.894	3.576	-15.199
64479.168	-36.955	-32.485	-72.718	24.736	-89.407	5.662	8.941	5.662
64479.176	-56.624	-51.558	-84.937	14.901	-101.924	-6.258	1.490	-19.968
64479.184	-56.326	-49.174	-93.281	15.497	-102.222	2.086	8.643	-0.894
64479.192	-69.439	-61.691	-106.990	-4.768	-110.567	-1.490	3.874	-1.192
64479.200	-74.208	-65.565	-107.288	-6.855	-107.586	0.000	6.258	-11.027
64479.208	-63.777	-56.624	-98.348	-5.662	-85.533	11.325	17.881	10.431
64479.216	-70.632	-62.287	-94.771	-2.384	-78.678	1.788	6.557	-14.305
64479.224	-69.737	-50.664	-89.407	5.364	-73.314	0.298	4.172	1.192
64479.232	-70.930	-55.730	-88.215	-11.325	-64.075	-2.682	3.576	-0.596
64479.240	-77.188	-65.565	-93.877	-23.246	-63.181	-4.470	3.576	-19.968
64479.248	-71.526	-62.287	-96.858	-19.372	-56.922	-0.596	9.239	-0.596
64479.256	-87.321	-81.062	-108.778	-35.763	-58.711	-14.007	-3.576	-27.716
64479.264	-84.043	-73.314	-113.249	-30.994	-56.922	-6.557	2.384	-7.153
64479.272	-92.983	-81.360	-103.414	-43.213	-61.691	-13.709	-4.470	-17.881
64479.280	-87.917	-78.380	-92.685	-38.743	-52.452	-14.901	-5.960	-27.418
64479.288	-81.360	-69.141	-94.771	-33.975	-48.876	-8.941	-2.086	0.298
64479.296	-92.089	-83.447	-99.838	-44.405	-53.942	-13.113	-1.788	-25.630
64479.304	-89.705	-78.678	-102.520	-42.915	-53.644	-5.364	5.364	-9.239
64479.312	-88.215	-74.208	-104.010	-39.339	-50.068	-4.470	5.066	-7.153
64479.320	-76.592	-65.267	-89.705	-23.246	-41.127	0.000	10.133	-14.603
64479.328	-63.479	-48.876	-79.870	-11.325	-37.551	12.219	20.266	14.007
64479.336	-75.996	-62.287	-83.447	-28.014	-42.319	0.894	8.941	-7.153
64479.344	-71.228	-62.287	-84.639	-26.524	-35.465	8.941	12.219	5.662
64479.352	-76.890	-59.605	-86.427	-36.061	-39.935	4.470	7.749	1.788
64479.360	-80.466	-70.333	-91.195	-34.273	-50.366	5.662	6.258	-11.623
64479.368	-68.843	-56.624	-85.533	-22.948	-42.617	13.709	11.325	10.133
64479.376	-59.903	-43.213	-67.949	-5.662	-38.445	0.298	2.980	-15.199
64479.384	-59.903	-43.213	-69.737	1.192	-44.405	10.133	14.007	0.596
64479.392	-56.624	-42.319	-71.228	-2.980	-45.002	11.921	13.411	-1.192
64479.400	-53.048	-39.339	-70.333	-3.278	-42.021	8.643	7.153	-11.921
64479.408	-49.472	-35.465	-70.333	2.980	-44.703	9.537	10.133	11.623
64479.416	-57.220	-45.896	-73.314	-7.451	-51.260	5.364	7.153	-10.431
64479.424	-48.578	-37.253	-68.545	-0.894	-48.280	14.603	15.497	4.768
64479.432	-53.942	-40.531	-64.671	-2.980	-45.896	15.497	14.901	-0.596
64479.440	-55.730	-36.955	-60.201	3.278	-47.088	11.027	13.113	-6.557
64479.448	-56.326	-37.551	-71.228	6.557	-50.664	12.517	11.325	11.325
64479.456	-59.009	-41.723	-64.969	3.278	-55.730	7.749	7.153	-10.729
64479.464	-50.664	-41.425	-66.161	9.537	-52.452	11.921	12.219	8.643
64479.472	-55.730	-43.809	-71.824	-1.490	-53.048	10.133	10.133	6.258
64479.480	-52.750	-42.319	-67.949	0.596	-52.750	7.153	10.133	-8.047
64479.488	-47.088	-33.081	-64.075	8.941	-50.664	12.219	16.689	9.835
64479.496	-56.624	-42.319	-70.035	-0.894	-55.432	2.980	6.258	-8.941
64479.504	-47.386	-33.975	-64.373	8.643	-55.730	6.855	9.537	10.133
64479.512	-55.134	-40.829	-63.777	1.490	-53.346	4.172	8.643	3.278
64479.520	-47.684	-44.703	-65.565	-2.086	-43.809	5.960	15.795	-11.027
64479.528	-42.915	-36.061	-60.499	-2.682	-46.194	4.470	13.113	10.133
64479.536	-54.240	-44.107	-58.115	-8.643	-48.280	-4.768	0.596	-15.199
64479.545	-43.511	-34.869	-57.817	4.768	-44.703	8.941	11.623	1.192
64479.553	-47.386	-40.829	-63.479	-1.788	-46.492	9.239	12.815	0.298
64479.561	-46.790	-41.723	-61.393	-4.172	-46.492	5.364	9.239	-14.603
64479.569	-46.492	-44.107	-67.055	3.278	-51.856	7.451	8.941	5.066
64479.577	-57.220	-47.684	-58.115	-5.066	-52.154	-2.086	2.384	-19.670
64479.585	-46.492	-35.167	-48.876	2.980	-43.511	8.643	14.007	3.874
64479.593	-47.088	-36.955	-53.644	-1.192	-50.664	10.133	16.391	-0.298
64479.601	-50.068	-37.253	-56.028	5.364	-60.201	5.662	10.431	-9.537
64479.609	-43.213	-28.312	-62.287	11.921	-55.432	11.623	15.497	12.517
64479.617	-49.174	-41.723	-64.075	2.086	-56.922	5.960	11.325	-13.709
64479.625	-46.492	-44.405	-66.161	-1.788	-58.413	11.325	13.113	-1.192
64479.633	-54.836	-51.558	-65.863	-8.643	-55.730	4.172	6.557	-0.894
64479.641	-52.452	-50.366	-57.518	-6.557	-58.711	2.980	5.364	-9.835
64479.649	-43.511	-32.783	-53.644	5.066	-60.499	13.113	14.901	14.901
64479.657	-52.452	-44.107	-52.750	-2.682	-60.797	2.980	4.768	-17.881
64479.665	-43.809	-41.127	-52.750	0.596	-56.624	9.537	9.239	1.788
64479.673	-45.598	-39.935	-55.134	-0.596	-57.518	5.066	4.172	-2.384
64479.681	-37.551	-33.081	-36.657	7.749	-50.962	9.537	9.239	-8.941
64479.689	-31.888	-24.438	-34.273	14.305	-54.240	14.603	12.517	14.901
64479.697	-44.107	-37.253	-42.915	-0.298	-57.518	2.682	3.278	-11.027
64479.705	-32.485	-27.716	-41.723	9.239	-59.903	9.537	11.623	1.192
64479.713	-34.869	-27.716	-39.935	13.709	-61.691	5.364	8.643	-3.874
64479.721	-39.041	-36.657	-36.955	6.855	-58.115	2.384	4.470	-13.411
64479.729	-36.955	-34.571	-40.531	3.278	-52.750	8.643	10.133	5.662
64479.737	-35.167	-30.994	-29.802	5.066	-51.260	-4.172	1.192	-15.199
64479.745	-16.689	-12.219	-21.756	24.438	-45.896	13.709	14.305	8.345
64479.753	-40.233	-32.783	-45.002	5.960	-64.075	-1.490	-0.298	-6.855
64479.761	-44.405	-39.935	-38.445	-1.788	-65.267	-2.980	-2.384	-20.266
64479.783	-27.120	-27.418	-28.014	3.278	-55.730	10.133	8.345	3.874
64479.791	-32.783	-31.590	-25.332	5.662	-53.048	5.364	4.172	-16.093
64479.799	-27.418	-27.120	-32.485	9.835	-52.452	9.537	9.537	6.557
64479.807	-29.206	-24.438	-35.167	6.258	-56.922	6.855	6.855	5.364
64479.815	-25.332	-25.034	-23.842	9.537	-56.028	11.027	10.133	-3.278
64479.823	-31.590	-27.418	-34.571	6.258	-70.035	7.749	6.855	9.835
64479.831	-44.405	-36.061	-35.465	-5.662	-67.949	-4.768	-5.364	-17.285
64479.839	-35.167	-25.630	-39.339	5.364	-54.240	2.384	-0.298	1.192
64479.847	-33.379	-27.716	-28.312	4.470	-50.068	4.768	5.364	2.086
64479.855	-32.783	-33.081	-19.968	0.596	-51.856	1.192	6.557	-16.093
64479.863	-27.716	-27.716	-23.544	6.855	-53.048	7.153	8.941	0.000
64479.871	-34.571	-33.379	-27.120	5.364	-54.836	-1.192	1.192	-20.266
64479.879	-22.054	-19.670	-26.524	18.775	-50.664	9.537	11.027	-0.298
64479.887	-20.862	-17.583	-17.285	16.093	-40.531	9.835	11.921	-2.086
64479.895	-33.677	-30.696	-27.716	3.874	-51.260	-1.788	0.894	-16.391
64479.903	-31.888	-38.445	-22.948	-4.172	-59.307	3.576	1.788	5.662
64479.911	-38.147	-38.743	-30.696	-6.258	-64.373	-4.768	-5.960	-23.246
64479.919	-23.246	-18.477	-27.120	15.497	-53.048	8.941	8.047	0.000
64479.927	-24.140	-19.073	-19.372	9.835	-56.922	8.941	8.643	4.470
64479.935	-28.610	-23.544	-16.391	5.066	-59.903	5.662	6.258	-10.431
64479.943	-28.312	-22.054	-27.716	5.066	-56.028	11.623	11.027	12.219
64479.951	-27.120	-23.246	-21.756	5.066	-50.664	10.133	12.815	-8.941
64479.959	-25.034	-25.332	-22.948	2.086	-56.028	11.027	15.497	5.066
64479.967	-36.657	-35.167	-32.187	-0.894	-66.757	0.298	3.278	-2.980
64479.975	-34.869	-31.292	-22.650	4.172	-60.797	3.278	4.172	-13.113
64479.983	-28.312	-25.630	-21.160	7.749	-52.452	8.047	9.835	9.239
64479.991	-36.061	-34.571	-30.398	1.490	-57.220	1.490	3.576	-14.901
64479.999	-26.524	-26.226	-21.458	4.172	-59.903	5.364	7.749	9.537
64480.006	-35.465	-30.398	-23.544	-7.153	-62.287	-2.384	-0.894	5.066
64480.014	-32.187	-30.696	-21.160	1.192	-53.942	-0.596	1.192	-9.537
64480.022	-26.524	-22.054	-25.332	6.855	-53.644	3.874	7.451	10.133
64480.030	-35.167	-25.928	-18.477	6.258	-56.624	-6.855	1.788	-18.775
64480.038	-31.292	-22.948	-25.332	9.239	-61.393	-1.788	3.874	2.682
64480.046	-47.684	-38.445	-39.935	-4.172	-75.698	0.894	0.596	2.384
64480.054	-45.896	-43.809	-29.206	-3.278	-65.267	2.086	2.384	-15.199
64480.062	-17.285	-18.179	-10.133	7.451	-41.127	4.768	6.855	9.239
64480.070	-28.014	-28.610	-8.047	-11.623	-45.002	-8.643	-4.768	-21.160
64480.078	-25.034	-33.677	-3.576	-20.564	-32.783	-8.047	-5.662	-8.047
64480.086	-24.140	-28.312	-5.364	-19.968	-19.670	-8.941	-3.278	-7.451
64480.094	-24.438	-25.034	-1.192	-19.670	-15.795	-8.345	-2.980	-15.497
64480.102	-24.438	-27.716	2.682	-25.332	-24.736	-5.066	-6.557	7.749
64480.110	-41.723	-43.809	-4.172	-40.531	-35.167	-11.921	-12.815	-24.438
64480.118	-34.273	-29.802	-3.576	-32.783	-25.630	-2.980	-5.960	-7.153
64480.126	-35.465	-34.869	-7.749	-38.445	-18.179	-4.172	-3.874	-10.729
64480.134	-33.379	-35.465	-5.662	-37.849	-12.815	-7.451	-3.874	-19.372
64480.142	-22.352	-27.418	0.894	-28.312	5.364	0.596	5.066	8.941
64480.150	-30.100	-36.061	2.086	-38.147	7.451	-5.960	-1.490	-14.305
64480.158	-30.100	-31.590	0.000	-44.107	11.623	-3.874	-2.682	-4.768
64480.166	-34.273	-35.167	0.596	-52.750	14.603	-11.921	-12.219	-9.835
64480.174	-35.167	-41.127	-0.596	-60.201	17.285	-19.670	-16.093	-28.610
64480.182	-37.551	-39.339	-4.768	-60.499	14.603	-19.073	-15.795	-11.027
64480.190	-46.492	-44.405	-15.199	-64.671	11.623	-29.504	-27.716	-32.187
64480.198	-34.869	-32.485	0.000	-53.942	21.756	-19.073	-20.564	-15.497
64480.206	-39.637	-41.127	5.662	-60.499	18.775	-22.650	-24.736	-16.689
64480.214	-38.743	-41.425	0.894	-59.605	18.179	-21.756	-22.352	-25.928
64480.222	-37.849	-36.955	-8.643	-64.671	13.113	-18.179	-20.862	4.470
64480.221	-41.127	-42.319	-8.345	-68.247	9.239	-22.054	-24.438	-17.881
64480.229	-30.100	-25.630	3.576	-47.088	14.603	-14.305	-17.285	-4.470
64480.237	-30.696	-22.948	5.066	-39.637	26.524	-8.345	-10.431	-2.384
64480.245	-31.590	-29.802	9.835	-47.386	19.073	-13.411	-13.709	-17.285
64480.253	-22.352	-26.524	14.603	-48.578	17.881	-11.325	-12.815	1.788
64480.261	-29.802	-33.081	10.729	-53.346	20.564	-16.689	-17.881	-24.736
64480.269	-22.054	-19.372	7.749	-40.829	19.073	-9.537	-11.325	-8.047
64480.277	-26.822	-22.948	2.980	-45.896	10.431	-12.815	-15.795	-1.490
64480.285	-27.120	-25.630	7.749	-44.703	21.458	-18.179	-22.054	-15.795
64480.293	-19.670	-21.160	11.027	-37.253	25.630	-14.007	-16.391	2.682
64480.301	-28.908	-30.994	9.537	-44.703	11.027	-26.524	-28.908	-22.650
64480.309	-15.497	-13.411	13.411	-38.445	17.285	-14.305	-19.670	-5.364
64480.317	-16.987	-17.583	19.670	-44.107	16.391	-16.689	-23.246	-8.047
64480.325	-17.881	-22.948	26.822	-45.300	20.266	-16.093	-19.968	-26.226
64480.333	-10.729	-11.027	25.034	-33.975	25.034	-5.960	-11.325	1.788
64480.341	-22.054	-21.756	11.921	-39.339	18.477	-16.391	-17.881	-12.219
64480.349	-22.948	-25.630	8.345	-40.531	8.941	-13.411	-14.901	-1.788
64480.357	-25.034	-32.783	6.258	-46.790	6.258	-15.199	-16.987	-9.835
64480.365	-32.187	-32.485	2.682	-51.558	3.874	-23.246	-24.140	-23.544
64480.373	-27.418	-30.100	6.855	-48.578	7.451	-14.305	-17.881	0.894
64480.381	-37.551	-48.578	1.788	-65.267	2.086	-16.093	-18.179	-16.987
64480.389	-27.716	-33.379	-1.788	-51.558	2.980	-5.364	-10.729	-2.682
64480.397	-20.564	-18.775	12.815	-30.398	6.557	-6.855	-10.729	-8.345
64480.405	-12.815	-10.431	21.458	-17.583	8.643	-6.855	-9.537	-20.266
64480.413	-2.682	2.086	15.497	-2.682	2.980	2.086	0.596	7.153
64480.421	-14.901	-8.047	5.364	-13.113	-12.517	-6.855	-3.576	-19.073
64480.429	-2.980	6.557	10.133	2.980	-10.133	8.047	8.941	1.192
64480.437	-6.258	-1.788	8.047	-0.298	-14.007	1.490	3.278	-1.192
64480.446	-11.027	-4.470	2.980	-4.768	-21.458	-9.239	-5.364	-22.948
64480.454	-1.192	7.749	9.239	3.576	-14.901	5.960	5.364	2.980
64480.462	-10.133	-5.364	13.709	-5.662	-19.968	1.192	3.278	-21.160
64480.470	-15.795	-10.133	0.596	-6.258	-21.160	-0.894	0.894	-8.643
64480.478	-17.881	-11.027	1.788	-9.835	-19.372	-1.192	0.596	-8.643
64480.486	-18.179	-13.113	4.172	-14.901	-21.458	-3.278	-1.192	-24.438
64480.494	-17.285	-12.219	-4.768	-11.921	-27.418	1.490	0.894	-0.894
64480.502	-31.888	-27.120	-17.583	-22.054	-35.465	-5.364	-5.662	-22.650
64480.510	-16.689	-12.219	2.086	-8.941	-21.458	7.153	7.749	-0.596
64480.518	-25.034	-23.544	-0.298	-22.948	-28.610	2.086	2.682	-9.835
64480.526	-29.802	-29.504	-11.027	-31.590	-37.849	-3.874	-0.596	-23.842
64480.534	-25.332	-22.352	-7.451	-21.160	-32.187	0.298	-0.298	1.192
64480.542	-31.888	-27.716	-4.172	-17.583	-36.359	-10.431	-10.133	-25.928
64480.550	-21.756	-15.199	-5.960	-9.835	-31.590	-0.894	-1.788	-14.305
64480.558	-23.246	-11.325	-7.451	-15.497	-36.359	1.192	0.894	-6.557
64480.566	-25.332	-19.670	-4.470	-18.775	-39.339	-4.768	-3.874	-15.497
64480.574	-14.305	-8.345	-0.298	-2.384	-32.485	2.384	2.682	6.855
64480.582	-17.285	-2.384	2.980	-2.384	-26.822	1.490	3.874	-16.391
64480.590	-13.411	-2.682	3.874	0.298	-30.994	6.855	5.960	-2.086
64480.598	-25.034	-16.689	-2.980	-11.027	-36.955	3.874	0.894	-2.980
64480.606	-27.120	-18.477	-9.537	-10.729	-39.935	4.172	-2.086	-14.007
64480.614	-15.497	-5.364	4.470	2.384	-33.677	10.133	3.576	13.709
64480.622	-27.716	-20.862	1.788	-11.623	-33.677	-4.172	-7.451	-20.266
64480.630	-22.352	-19.968	-2.384	-11.325	-35.167	3.874	2.682	-7.749
64480.638	-26.524	-18.477	-2.384	-10.431	-40.233	0.894	0.000	-4.768
64480.646	-23.842	-9.239	-2.086	-2.384	-38.147	-6.258	-4.768	-21.160
64480.654	-21.756	-4.768	-2.384	2.384	-36.657	-1.490	1.192	-3.576
64480.662	-29.504	-18.477	0.596	-10.431	-39.041	-4.172	-3.874	-24.736
64480.659	-14.305	-7.451	4.172	-3.278	-35.167	3.278	0.596	-7.451
64480.667	-26.822	-18.775	-13.709	-8.345	-47.386	-0.596	-2.384	-11.325
64480.675	-31.590	-24.438	-16.093	-8.643	-50.068	-7.153	-5.662	-27.716
64480.683	-17.881	-11.325	-0.894	-2.980	-42.915	-0.596	2.682	0.000
64480.691	-20.862	-14.901	0.000	-7.749	-44.703	-5.364	1.192	-20.266
64480.699	-16.391	-9.835	0.596	0.298	-40.233	3.278	9.239	-7.153
64480.707	-31.292	-19.968	-14.901	-10.133	-51.260	-6.855	-1.788	-11.027
64480.715	-38.147	-27.418	-21.160	-15.795	-58.115	-9.239	-5.960	-23.246
64480.723	-30.100	-18.477	-15.497	-8.941	-52.452	1.788	1.788	4.172
64480.731	-36.061	-28.908	-9.835	-19.372	-54.240	-2.086	-0.894	-19.670
64480.739	-30.696	-18.775	-18.179	-14.603	-57.220	-2.682	-3.278	-5.364
64480.747	-34.571	-18.775	-14.007	-14.603	-55.432	-10.729	-7.749	-5.662
64480.755	-29.206	-23.246	-4.768	-11.325	-53.942	-8.643	-1.788	-13.113
64480.763	-29.802	-21.756	-10.431	-12.815	-54.538	0.298	4.470	4.768
64480.771	-44.703	-35.465	-21.756	-25.928	-58.711	-14.305	-9.537	-20.266
64480.779	-35.763	-25.332	-18.477	-17.881	-57.220	-10.431	-8.941	-5.960
64480.787	-31.292	-17.583	-16.093	-6.258	-50.962	-9.537	-7.451	-5.662
64480.795	-26.226	-11.027	-5.364	2.384	-49.472	-9.835	-5.662	-18.179
64480.803	-25.928	-11.027	-8.941	-2.682	-52.750	-2.086	0.894	5.960
64480.811	-33.379	-19.372	-18.775	-11.027	-57.220	-5.662	-4.470	-12.815
64480.819	-1.192	10.431	21.160	10.729	-31.292	5.364	3.576	2.384
64480.827	11.027	11.027	42.617	5.066	-15.795	-0.894	-1.490	2.384
64480.835	20.862	7.153	48.876	-1.490	-7.451	-5.662	-6.557	-14.007
64480.843	36.955	36.359	59.307	18.179	3.278	-4.470	-5.960	7.749
64480.851	32.783	40.829	67.055	20.862	3.278	-12.219	-15.199	-18.179
64480.859	44.703	44.703	70.632	25.034	5.066	-0.894	-3.278	1.192
64480.867	37.551	35.763	62.585	15.497	0.894	-2.980	-2.980	1.788
64480.875	22.352	20.862	49.174	0.894	-13.113	-17.881	-17.583	-15.199
64480.884	29.206	26.822	43.511	5.364	-14.007	-8.345	-8.345	14.603
64480.892	10.729	10.431	43.213	-6.258	-23.246	-15.795	-13.411	-15.497
64480.900	21.160	19.968	40.531	3.874	-17.285	-7.153	-3.874	4.768
64480.908	16.689	19.073	39.041	0.000	-27.120	-15.795	-11.623	1.788
64480.916	13.113	14.901	49.174	0.894	-27.120	-20.266	-18.179	-15.795
64480.924	24.438	22.054	48.876	8.941	-11.325	-8.047	-7.451	1.192
64480.932	15.497	13.411	46.194	-2.086	-11.325	-14.603	-11.921	-23.842
64480.940	20.266	13.709	47.386	-1.490	-11.921	-10.133	-9.537	-7.451
64480.948	9.835	6.855	38.445	-11.623	-18.477	-14.007	-16.391	-5.960
64480.956	10.133	8.643	42.617	-11.623	-9.835	-18.477	-19.372	-25.332
64480.964	22.948	20.564	50.068	-1.788	5.066	-11.325	-11.325	3.278
64480.972	20.266	17.583	52.154	-4.172	14.603	-13.113	-11.623	-11.921
64480.980	23.842	23.246	48.876	-2.384	14.007	-8.643	-7.451	0.000
64480.988	18.477	20.862	50.962	-4.172	11.921	-11.027	-11.623	-5.960
64480.996	17.583	18.775	50.068	-5.066	18.775	-8.047	-9.239	-16.391
64481.004	25.332	26.524	50.962	-2.682	29.504	0.298	-1.192	11.921
64481.012	25.034	27.716	56.624	-4.470	33.379	-5.364	-2.384	-12.517
64481.020	35.167	37.253	67.651	4.768	36.061	0.298	0.596	-0.596
64481.028	34.571	35.167	64.671	5.662	39.041	-2.682	2.086	-1.490
64481.036	40.233	36.955	61.691	8.941	45.002	-1.192	3.874	-6.557
64481.044	37.849	38.147	58.115	9.239	37.253	-2.086	-0.596	12.815
64481.052	26.524	29.206	55.134	-5.364	36.955	-16.689	-12.219	-16.987
64481.060	35.763	34.869	66.757	5.066	40.531	-8.941	-6.855	-5.662
64481.068	35.763	36.061	71.526	2.682	42.319	-10.729	-7.153	-1.490
64481.076	37.849	33.379	72.718	5.066	49.174	-10.431	-5.960	-19.968
64481.084	36.657	35.167	65.863	2.384	44.107	-5.960	-4.470	0.298
64481.092	25.332	22.650	58.413	-5.066	33.677	-15.497	-11.027	-25.332
64481.100	35.763	35.465	59.009	10.431	33.677	-8.941	-2.086	-8.941
64481.110	29.206	31.292	57.518	3.874	36.359	-11.623	-3.576	-9.537
64481.118	13.113	14.007	53.346	-5.364	28.908	-15.795	-10.729	-28.610
64481.126	24.438	23.246	58.115	0.298	32.485	-10.729	-9.835	-2.086
64481.134	40.829	40.233	72.420	9.835	44.405	-16.689	-14.007	-20.266
64481.142	63.777	59.903	90.599	23.246	54.538	-8.643	-7.749	-5.364
64481.150	71.228	63.479	101.924	24.438	60.201	-5.364	-6.258	-2.384
64481.158	72.122	56.326	107.884	19.372	64.969	-9.835	-7.451	-14.901
64481.166	75.996	71.228	115.037	27.418	69.737	-6.258	-5.066	5.960
64481.174	59.903	63.479	102.520	19.073	57.518	-16.689	-18.477	-18.775
64481.182	67.949	63.479	97.454	25.630	51.856	-5.364	-7.153	-3.278
64481.190	56.624	49.472	86.725	10.729	39.041	-10.729	-11.027	-3.278
64481.198	46.492	42.617	79.572	5.066	37.849	-15.199	-16.689	-17.881
64481.206	47.982	48.280	75.400	11.325	43.213	-6.855	-9.239	6.855
64481.214	42.319	46.194	80.168	9.537	42.319	-4.768	-6.258	-11.325
64481.222	51.558	50.068	79.274	13.709	41.723	2.980	-0.894	1.192
64481.230	43.809	39.935	75.400	0.298	33.677	-6.258	-14.901	4.172
64481.238	38.147	33.081	77.486	-3.576	38.743	-18.477	-22.650	-14.603
64481.246	44.107	36.955	74.804	-1.788	44.703	-8.941	-12.517	8.643
64481.254	39.935	37.253	72.122	0.000	44.703	-5.066	-8.643	-4.768
64481.262	39.041	39.339	63.181	1.192	40.531	-3.278	-8.047	4.768
64481.270	38.743	34.571	73.612	1.490	38.147	-4.470	-11.325	2.980
64481.278	45.300	39.041	79.572	8.047	42.021	-8.643	-12.815	-17.583
64481.286	50.962	46.194	76.890	9.537	50.962	-5.960	-7.153	2.384
64481.294	40.233	38.147	76.294	-0.298	48.876	-16.987	-19.968	-21.160
64481.302	45.896	45.002	68.545	8.047	47.684	-11.325	-15.795	-8.047
64481.310	42.021	42.915	63.777	6.258	43.809	-9.239	-11.623	-4.172
64481.318	41.723	42.319	70.333	8.047	47.386	-6.557	-8.345	-9.537
64481.326	54.538	52.154	77.486	12.517	48.280	1.490	-2.384	18.775
64481.334	42.319	37.849	75.996	2.384	38.743	-14.007	-17.881	-13.411
64481.342	45.300	42.617	71.228	14.603	43.213	-8.345	-11.325	-6.258
64481.350	40.233	42.617	68.843	11.921	43.511	-11.921	-14.007	-3.576
64481.358	36.657	38.743	69.141	5.662	42.021	-13.709	-16.689	-16.987
64481.366	45.598	49.770	70.632	11.921	38.743	-6.258	-9.537	3.278
64481.374	35.763	39.935	68.545	3.874	34.273	-17.285	-18.477	-23.544
64481.382	43.511	48.876	67.353	17.285	34.571	-9.835	-13.709	-4.470
64481.390	42.319	46.492	65.267	12.219	35.465	-17.285	-21.160	-6.258
64481.398	41.425	44.703	69.439	14.007	36.359	-19.670	-24.140	-21.458
64481.406	52.154	55.134	75.102	22.650	45.002	-6.557	-10.431	7.153
64481.414	41.127	39.041	73.910	10.729	41.425	-14.305	-12.815	-20.564
64481.422	37.849	39.339	61.691	9.835	29.802	-12.815	-17.285	-7.153
64481.430	29.504	35.465	52.154	7.451	17.881	-12.517	-19.372	2.384
64481.438	35.167	38.743	55.730	8.941	25.630	-11.921	-18.477	-13.113
64481.446	42.915	41.127	67.949	13.709	37.253	-6.557	-13.411	2.980
64481.454	25.332	19.372	59.903	-4.470	25.034	-20.564	-25.928	-19.372
64481.462	27.716	29.504	57.220	-0.596	20.862	-16.391	-22.650	-4.172
64481.470	25.928	30.994	51.260	-1.192	15.497	-14.305	-17.285	-3.278
64481.478	26.226	30.696	50.962	3.874	18.477	-11.325	-11.921	-15.795
64481.486	32.485	34.869	56.028	7.153	24.438	-6.258	-10.133	10.431
64481.494	29.504	30.398	62.287	5.066	27.120	-12.219	-14.305	-9.239
64481.502	38.743	36.657	65.267	12.219	23.544	-4.768	-5.960	-1.788
64481.510	23.842	26.226	50.068	-1.192	10.431	-12.815	-16.093	-1.788
64481.518	18.775	23.544	43.213	-1.490	8.047	-19.073	-18.775	-15.199
64481.526	25.928	30.398	44.107	0.298	12.517	-12.517	-13.411	9.239
64481.534	21.756	27.716	47.088	-4.172	11.921	-12.219	-9.537	-17.583
64481.542	22.352	29.504	48.280	3.576	14.305	-5.662	-4.768	-5.662
64481.550	16.391	22.054	49.770	2.384	11.325	-4.172	-7.749	-0.298
64481.559	15.199	15.199	46.790	-1.788	6.258	-8.941	-12.517	-17.881
64481.567	26.822	28.610	48.280	8.941	17.583	1.490	1.788	6.855
64481.575	13.411	21.458	46.790	-1.192	10.729	-9.239	-8.941	-16.689
64481.583	12.517	15.795	38.445	-5.662	5.662	-11.623	-12.517	-7.451
64481.591	10.431	16.689	38.743	-8.345	5.662	-11.623	-11.325	-6.258
64481.599	12.517	22.352	52.452	0.000	7.451	-11.027	-8.941	-20.266
64481.607	19.968	31.292	50.068	9.835	10.729	2.384	1.788	9.537
64481.615	10.729	19.968	42.021	-2.682	1.490	-5.662	-7.749	-12.815
64481.623	23.842	25.630	42.319	6.258	5.662	1.192	-2.384	-2.980
64481.631	23.544	25.332	45.002	5.066	10.729	-1.490	-2.980	1.192
64481.639	25.332	30.994	56.922	14.901	12.815	0.298	1.192	-11.325
64481.647	23.246	35.465	50.068	16.093	5.364	10.729	6.557	19.372
64481.655	8.345	17.881	37.849	2.086	-0.596	-0.894	-2.086	-6.855
64481.663	19.372	25.332	43.213	10.431	0.000	8.345	5.364	5.066
64481.671	14.901	22.054	41.127	6.855	-0.298	5.960	4.172	2.086
64481.679	8.941	9.537	33.081	3.278	-5.364	-3.874	-3.576	-15.795
64481.687	16.689	19.372	31.590	8.047	-2.980	4.172	5.364	8.345
64481.695	5.960	12.815	31.292	-2.086	-4.470	-1.490	-3.278	-15.795
64481.703	16.093	20.564	48.578	5.960	6.855	1.788	-0.894	-1.490
64481.711	18.775	22.352	47.684	9.239	13.709	2.980	2.980	3.576
64481.719	19.073	28.312	50.962	12.517	11.623	2.682	3.576	-13.113
64481.727	20.862	25.034	44.107	8.643	6.557	2.086	3.278	0.894
64481.735	7.749	8.047	40.531	-4.470	0.298	-10.729	-10.729	-20.266
64481.743	16.987	17.583	43.213	6.258	-1.490	-5.960	-8.345	-3.874
64481.751	12.815	16.093	46.492	2.980	-5.662	-9.239	-12.815	-2.980
64481.759	14.007	16.689	45.896	9.835	2.086	-8.941	-10.133	-17.881
64481.767	20.266	30.100	41.127	11.325	1.788	-1.192	-4.768	11.027
64481.775	-0.298	10.431	39.935	-5.960	-11.325	-17.583	-21.160	-17.285
64481.784	11.325	16.093	37.551	3.278	-8.047	-14.603	-15.497	-5.960
64481.792	14.305	19.968	42.617	9.239	-3.576	-5.066	-8.345	0.298
64481.800	2.086	8.941	38.445	-5.066	-13.709	-9.537	-13.113	-20.862
64481.808	-7.749	-6.258	22.650	-20.266	-21.160	-8.047	-11.027	2.086
64481.816	-5.662	0.596	23.544	-5.364	-16.987	-20.862	-20.862	-17.881
64481.824	1.490	10.729	22.948	10.431	-19.073	-14.603	-12.517	-8.047
64481.832	-9.537	1.490	11.325	7.749	-33.081	-15.795	-13.709	-8.345
64481.840	-19.968	-8.047	-0.298	2.086	-45.002	-20.862	-19.372	-19.670
64481.848	-22.948	-6.855	-12.219	4.172	-43.511	-13.709	-12.219	1.490
64481.856	-45.300	-28.014	-26.226	-11.623	-49.472	-19.372	-16.391	-22.352
64481.864	-40.531	-26.226	-30.994	-11.921	-39.935	-16.987	-8.941	-16.391
64481.872	-41.425	-30.696	-33.677	-19.670	-36.061	-15.497	-3.874	-15.199
64481.880	-39.041	-33.081	-23.842	-20.266	-23.544	-7.153	2.682	-23.544
64481.888	-38.743	-26.524	-31.590	-26.822	-16.093	-2.682	4.768	-1.788
64481.896	-48.876	-31.292	-33.081	-32.783	-21.756	-9.835	-0.298	-25.034
64481.904	-45.896	-28.610	-39.041	-28.014	-23.544	-11.027	-4.172	-13.709
64481.912	-49.472	-31.888	-37.849	-32.187	-18.477	-12.815	-5.364	-13.709
64481.920	-50.366	-37.253	-27.418	-31.888	-11.921	-13.709	-5.662	-30.994
64481.928	-42.319	-28.610	-29.802	-24.438	-8.047	-12.517	-5.960	-0.894
64481.936	-57.817	-44.405	-44.405	-39.637	-16.987	-33.081	-22.054	-25.630
64481.944	-51.558	-37.849	-38.147	-34.571	-14.603	-21.458	-12.517	-13.113
64481.952	-58.711	-43.213	-37.849	-38.147	-18.477	-18.179	-11.921	-7.749
64481.960	-56.922	-45.896	-31.888	-41.425	-16.391	-18.179	-10.431	-25.928
64481.968	-43.809	-33.379	-28.312	-30.994	-8.941	-8.047	-1.192	-1.490
64481.976	-54.538	-40.233	-34.571	-35.763	-15.795	-14.603	-9.835	-23.246
64481.984	-45.598	-33.379	-31.292	-26.822	-12.219	1.192	4.768	-7.451
64481.992	-51.260	-39.041	-33.677	-30.100	-14.007	0.894	2.682	-0.894
64482.000	-46.492	-36.955	-17.881	-27.716	-7.153	-1.788	-0.596	-13.113
64482.010	-30.994	-22.650	-18.179	-13.709	0.894	8.345	10.729	17.285
64482.018	-36.359	-23.842	-16.093	-18.179	-2.086	1.192	9.537	-7.153
64482.026	-37.551	-23.544	-16.689	-18.179	-4.768	6.557	11.921	3.874
64482.034	-44.107	-30.696	-33.379	-25.928	-13.709	1.788	4.768	14.901
64482.042	-39.935	-26.524	-24.736	-18.477	-10.729	0.298	2.384	-0.596
64482.050	-42.915	-28.610	-32.187	-19.968	-16.391	-0.298	0.596	16.093
64482.058	-51.260	-38.147	-30.696	-29.504	-19.372	-10.431	-4.768	-7.451
64482.066	-40.829	-27.120	-21.756	-20.862	-12.517	-10.431	-6.855	5.364
64482.074	-39.339	-21.160	-24.438	-18.477	-17.285	-14.305	-11.027	7.749
64482.082	-45.002	-29.504	-23.544	-24.438	-24.140	-17.285	-14.007	-10.431
64482.090	-35.763	-21.458	-21.160	-15.199	-14.901	0.894	0.000	9.835
64482.098	-36.061	-29.504	-17.285	-16.391	-10.431	-1.192	-2.682	-8.047
64482.106	-32.783	-26.524	-16.689	-15.199	-16.391	-1.490	-5.066	-2.980
64482.114	-41.127	-27.120	-26.226	-19.670	-20.862	-5.960	-9.239	-6.258
64482.122	-42.617	-31.292	-25.332	-19.073	-15.199	-10.431	-11.921	-21.458
64482.130	-30.100	-17.583	-15.795	-8.047	-7.153	-0.596	-1.490	11.027
64482.138	-39.637	-28.014	-21.756	-18.179	-14.603	-14.901	-13.411	-12.517
64482.146	-33.081	-23.842	-25.332	-16.093	-14.603	-6.855	-3.874	-8.643
64482.154	-32.187	-18.477	-19.073	-13.411	-14.901	-2.682	0.000	-1.192
64482.162	-34.869	-24.140	-17.285	-21.458	-14.901	-5.364	-2.980	-14.901
64482.170	-25.332	-12.517	-10.133	-8.643	-2.384	5.066	3.874	16.093
64482.178	-29.206	-15.795	-3.874	-10.431	4.470	-0.596	-1.490	-2.980
64482.186	-27.418	-15.199	-10.431	-7.749	-0.596	3.278	1.788	0.894
64482.194	-34.273	-19.372	-20.564	-14.305	-8.643	-2.086	-1.192	5.364
64482.202	-37.551	-25.034	-16.689	-19.968	-7.749	-1.490	-1.192	-9.835
64482.210	-30.696	-17.583	-12.815	-13.709	-11.325	5.662	3.278	12.815
64482.218	-41.127	-26.226	-16.093	-20.862	-12.815	-4.172	-5.662	-15.497
64482.226	-40.829	-27.418	-25.630	-20.564	-11.623	-0.596	-3.278	-6.557
64482.235	-45.598	-33.379	-30.100	-26.226	-12.517	-2.682	-5.960	-2.384
64482.243	-39.935	-28.312	-24.438	-23.544	-6.258	-4.470	-6.855	-17.285
64482.251	-26.822	-9.239	-12.219	-3.278	-0.298	0.596	0.000	10.431
64482.259	-34.273	-21.458	-10.133	-9.537	-8.643	-11.623	-10.729	-16.391
64482.267	-21.160	-15.795	-3.278	-1.192	-2.384	0.298	1.788	0.596
64482.275	-24.140	-10.133	-10.431	-7.153	-7.153	2.980	2.086	8.047
64482.283	-26.226	-10.729	-5.364	-7.749	-7.153	-2.086	-2.980	-16.093
64482.291	-16.093	-2.384	-0.596	6.855	-0.596	8.941	5.662	9.239
64482.299	-28.908	-14.901	-8.047	-1.490	-5.960	1.788	-0.894	-14.603
64482.307	-18.775	-8.345	-5.662	4.768	-4.768	8.047	6.855	-3.576
64482.315	-19.073	-13.411	-4.470	-1.490	-6.855	4.470	0.596	2.384
64482.323	-29.504	-19.670	-7.451	-9.239	-16.689	-5.066	-8.643	-17.583
64482.331	-21.458	-7.749	-17.285	1.788	-16.689	0.894	-2.086	3.278
64482.339	-27.418	-14.305	-13.113	0.000	-16.093	-2.682	-3.874	-19.670
64482.347	-19.372	-6.258	2.682	3.874	-6.258	10.431	7.451	-4.470
64482.355	-25.034	-12.815	-11.027	-1.192	-9.835	5.662	3.278	-1.192
64482.363	-31.292	-22.054	-8.047	-6.557	-17.583	0.000	-1.788	-17.583
64482.371	-22.650	-9.537	-3.576	-2.682	-18.179	12.815	9.835	5.662
64482.379	-26.524	-17.881	-5.364	-7.749	-16.391	9.239	8.345	-7.749
64482.387	-22.650	-17.881	-7.451	-1.788	-18.775	12.815	9.537	2.980
64482.395	-22.352	-8.047	-6.258	4.768	-22.054	10.133	6.258	5.364
64482.403	-24.438	-11.027	-6.557	3.576	-19.968	3.576	2.086	-17.583
64482.411	-15.199	-2.980	-12.219	3.874	-12.219	13.709	13.411	10.133
64482.419	-21.756	-13.113	-5.960	-1.788	-14.305	12.219	11.623	-9.239
64482.427	-14.603	-5.960	4.470	9.835	-16.093	18.775	16.689	2.980
64482.435	-19.670	-5.960	-2.384	5.066	-19.968	15.795	12.815	10.729
64482.443	-24.140	-12.517	-0.596	-1.192	-19.073	9.239	7.749	-9.835
64482.451	-21.756	-13.113	-6.855	-1.788	-21.160	8.643	6.855	10.431
64482.459	-29.802	-22.352	-11.921	-8.345	-23.544	0.298	1.490	-11.623
64482.467	-27.120	-19.968	-17.881	-6.557	-29.206	4.768	2.682	-3.278
64482.475	-27.716	-19.073	-14.901	-7.451	-28.014	6.258	5.364	3.874
64482.483	-31.590	-25.034	-12.517	-11.027	-30.100	2.384	1.192	-12.517
64482.491	-25.332	-21.160	-17.583	-5.066	-28.908	6.258	5.662	13.411
64482.499	-33.975	-27.716	-13.411	-11.325	-33.975	-2.980	-3.278	-7.153
64482.507	-25.034	-14.007	-9.239	-0.596	-27.418	10.431	8.643	4.470
64482.515	-25.928	-16.689	-10.431	-2.980	-28.014	12.219	11.921	10.431
64482.523	-30.398	-16.093	-13.709	-2.682	-26.822	7.749	8.047	-1.788
64482.531	-26.226	-9.835	-17.881	3.874	-30.398	6.557	6.855	14.305
64482.539	-33.081	-20.266	-13.411	-1.788	-32.485	-2.086	-0.298	-11.027
64482.547	-23.544	-10.133	-9.537	6.855	-24.438	7.451	6.855	0.298
64482.555	-22.054	-12.517	-7.153	1.788	-19.073	6.855	6.855	2.086
64482.563	-19.372	-13.709	-2.682	0.596	-20.266	2.384	6.855	-17.285
64482.571	-10.431	-1.788	-1.192	13.709	-17.583	9.239	10.133	8.345
64482.579	-21.160	-10.431	-6.258	10.133	-22.650	2.086	2.682	-12.815
64482.587	-18.775	-4.470	-1.788	10.729	-18.775	9.835	7.153	2.980
64482.595	-22.650	-7.451	1.192	8.345	-22.352	9.239	6.258	6.258
64482.603	-21.756	-8.047	4.470	11.921	-19.372	6.557	6.258	-5.662
64482.611	-17.583	-6.855	-6.557	11.921	-25.034	8.643	7.451	8.047
64482.619	-28.908	-17.285	-11.325	2.086	-29.504	-3.278	-0.298	-16.391
64482.627	-15.795	-7.451	-3.278	7.451	-27.418	6.557	11.027	1.490
64482.635	-23.842	-14.305	-14.305	0.000	-34.273	1.788	6.258	2.682
64482.643	-27.120	-16.689	-5.364	-0.298	-31.590	-2.086	2.384	-17.881
64482.651	-19.968	-8.047	-0.596	9.239	-27.716	1.490	6.258	7.451
64482.659	-30.696	-19.073	-1.788	3.278	-34.273	-6.258	2.384	-14.007
64482.667	-23.246	-13.709	-4.470	8.345	-31.590	1.788	11.325	0.298
64482.675	-20.266	-12.219	-11.921	1.192	-29.504	2.980	8.941	8.643
64482.685	-26.822	-16.987	-12.815	-2.682	-29.802	0.298	5.364	-6.557
64482.693	-31.888	-18.179	-15.199	-2.980	-28.908	4.768	8.345	13.411
64482.701	-14.007	-8.941	10.729	-3.278	0.596	-5.662	-1.192	-12.815
64482.709	4.470	4.470	31.888	-8.345	18.179	-4.768	-2.682	0.298
64482.717	36.061	33.379	66.757	4.470	56.624	0.000	0.000	11.623
64482.725	59.903	52.750	106.990	6.557	99.838	5.662	8.047	0.000
64482.733	70.632	63.181	123.978	2.980	122.488	-5.364	-6.855	9.835
64482.741	75.698	64.075	134.110	-8.643	140.071	-23.842	-21.756	-21.756
64482.749	83.447	73.016	132.918	-0.298	146.329	-19.073	-19.968	-12.219
64482.757	82.254	74.804	141.263	-6.557	151.396	-14.901	-18.179	-5.960
64482.765	78.678	72.718	149.310	-14.901	151.396	-20.862	-23.544	-22.054
64482.773	91.195	79.274	148.714	-9.537	155.866	-15.497	-20.266	7.749
64482.781	82.552	66.459	147.223	-12.219	147.820	-18.775	-22.352	-5.364
64482.789	104.308	90.003	149.608	-4.768	163.019	0.000	-6.855	11.325
64482.797	109.673	105.798	171.065	-2.086	179.708	-1.192	-6.855	16.093
64482.805	108.182	95.367	194.013	-4.470	186.861	-11.921	-14.305	-12.517
64482.813	115.633	99.540	177.324	13.709	177.026	0.298	-4.470	13.113
64482.821	95.963	80.168	156.760	2.980	160.635	-7.153	-10.133	-12.815
64482.829	91.195	80.764	151.396	-0.894	159.144	0.000	-3.874	-2.086
64482.837	70.930	65.267	133.216	-8.345	136.197	2.384	-7.451	6.557
64482.845	61.691	46.492	116.229	-21.458	119.507	-3.278	-11.921	-9.239
64482.853	70.930	55.730	110.567	-11.325	120.103	3.576	-3.576	15.199
64482.861	62.585	56.028	109.076	-13.113	123.382	4.470	-0.596	-6.557
64482.869	54.836	47.088	104.904	-18.477	114.739	2.980	-4.470	2.384
64482.877	47.088	35.465	92.387	-29.802	105.798	-4.470	-8.345	2.980
64482.885	48.876	34.273	94.771	-25.630	104.010	-0.894	-4.768	-11.325
64482.893	52.750	40.531	95.963	-14.603	105.798	10.729	4.470	16.093
64482.901	33.677	27.716	83.745	-31.590	96.262	-5.364	-11.921	-6.258
64482.911	33.677	23.544	68.545	-34.571	87.917	-3.576	-11.623	-0.894
64482.919	33.379	20.564	76.592	-35.465	79.572	-1.192	-11.325	0.298
64482.927	34.273	19.372	82.254	-33.379	82.850	-1.490	-10.133	-15.199
64482.935	41.127	30.398	73.612	-18.477	82.552	3.576	-5.662	14.007
64482.943	26.524	18.477	70.930	-32.187	78.976	-5.066	-13.113	-10.729
64482.951	34.571	20.564	68.545	-31.292	92.387	0.298	-6.557	-1.788
64482.959	32.485	17.285	71.526	-31.292	80.466	-2.980	-12.517	2.682
64482.967	31.888	24.140	78.082	-26.524	84.043	-3.874	-13.411	-14.901
64482.975	40.829	31.888	71.228	-22.948	82.254	2.384	-10.133	14.603
64482.983	30.696	17.285	65.267	-33.677	75.400	-3.576	-14.901	-0.596
64482.991	36.955	27.418	70.333	-23.544	89.407	8.643	-4.768	9.239
64482.999	30.100	25.928	75.102	-24.736	84.639	11.027	-2.682	12.219
64483.007	28.908	20.862	63.777	-28.610	80.168	4.470	-5.662	-4.172
64483.015	45.896	38.147	78.976	-20.266	94.771	9.537	-0.298	16.987
64483.023	36.955	26.822	77.188	-19.670	96.262	-0.298	-5.662	-6.258
64483.031	35.167	27.418	69.439	-21.756	92.089	-2.086	-7.451	-1.192
64483.039	19.968	15.795	57.518	-32.783	73.910	-12.815	-18.477	-6.557
64483.047	19.073	9.537	54.836	-33.975	75.996	-12.517	-16.689	-19.372
64483.055	38.445	22.948	65.267	-24.140	92.089	-1.788	-7.749	6.258
64483.063	29.206	12.219	64.373	-39.041	89.407	-14.901	-22.352	-16.391
64483.071	28.610	12.219	62.585	-38.147	88.811	-5.364	-15.497	-0.894
64483.079	21.160	11.027	64.075	-42.915	82.850	-8.941	-18.179	0.596
64483.087	18.477	9.239	55.432	-42.617	84.341	-13.113	-20.564	-20.266
64483.095	25.332	14.007	66.161	-33.975	95.069	-7.451	-17.881	4.172
64483.103	27.418	14.007	69.737	-35.763	94.473	-14.901	-22.054	-19.670
64483.111	34.571	17.285	63.479	-30.100	94.473	-6.557	-13.113	-7.451
64483.119	23.246	12.219	55.730	-38.743	79.572	-10.729	-17.583	-2.682
64483.127	19.073	5.066	60.499	-40.531	73.314	-13.113	-17.881	-17.285
64483.123	29.504	19.670	60.201	-31.590	81.062	-4.470	-11.623	9.537
64483.131	16.093	2.980	51.260	-38.743	80.466	-16.093	-20.564	-17.583
64483.139	27.418	14.603	58.413	-29.206	88.811	-6.557	-8.047	-9.239
64483.147	20.564	8.345	55.134	-32.485	81.956	-3.874	-8.345	-3.576
64483.155	14.007	2.086	52.750	-28.908	74.208	-7.153	-14.901	-24.438
64483.163	26.226	16.987	53.942	-20.862	79.572	-4.172	-8.941	-3.874
64483.171	21.458	9.537	50.962	-33.677	80.466	-11.325	-14.007	-20.564
64483.179	29.206	17.881	56.922	-25.630	80.168	-5.960	-11.623	-5.066
64483.187	26.822	14.305	58.413	-29.206	74.804	-4.470	-12.219	3.576
64483.195	26.524	10.133	61.989	-25.034	78.976	3.576	-4.768	-5.364
64483.203	25.034	16.391	53.942	-21.458	76.890	8.047	-3.874	19.372
64483.211	10.729	-5.066	44.107	-37.551	67.055	-5.960	-16.093	-8.643
64483.219	23.246	5.960	45.598	-39.637	71.824	2.086	-6.258	4.768
64483.227	22.352	9.537	45.002	-36.061	63.181	0.596	-6.855	4.172
64483.235	18.179	6.855	43.213	-28.312	62.883	1.490	-6.258	-9.835
64483.243	15.497	3.874	37.253	-27.716	67.055	2.980	-6.557	10.431
64483.251	3.278	-7.749	34.273	-40.531	55.134	-7.451	-16.987	-15.795
64483.259	11.921	1.788	48.876	-32.485	53.644	0.000	-9.537	-2.086
64483.267	8.345	2.086	40.531	-37.551	56.326	-7.153	-12.517	-2.086
64483.275	7.451	-2.682	34.273	-39.637	53.048	-14.603	-19.372	-19.670
64483.283	16.391	5.066	39.041	-28.908	60.797	-0.298	-8.345	14.007
64483.291	8.643	-5.364	38.445	-37.253	56.028	-3.576	-11.325	-6.855
64483.299	16.093	0.000	39.637	-30.100	55.730	5.364	-3.576	2.980
64483.307	8.941	-7.749	37.253	-35.167	50.366	-0.894	-10.133	2.980
64483.315	10.729	-4.768	36.061	-27.120	53.644	-2.384	-8.941	-11.623
64483.323	19.372	9.239	35.465	-18.775	57.817	4.768	-0.894	14.007
64483.331	14.305	5.066	39.935	-23.544	56.922	-2.682	-7.153	0.000
64483.339	25.332	11.921	53.644	-12.517	65.863	2.086	-3.874	12.219
64483.348	18.775	-0.298	42.319	-19.372	58.115	-2.384	-10.133	4.470
64483.356	13.113	-3.874	40.531	-27.716	59.605	-4.470	-10.431	-12.815
64483.364	12.517	0.000	34.571	-30.398	53.048	-2.682	-12.517	12.815
64483.372	4.172	-7.451	26.226	-36.359	46.790	-14.007	-23.246	-2.682
64483.380	15.497	7.153	38.445	-19.372	53.644	-2.980	-12.815	9.835
64483.388	16.987	10.133	40.829	-14.901	55.134	0.298	-9.239	10.133
64483.396	20.564	8.941	47.386	-19.968	65.863	-4.172	-11.325	-3.576
64483.404	20.862	7.451	42.915	-16.093	57.220	-2.980	-13.709	11.027
64483.412	5.066	-5.662	34.571	-29.504	48.578	-12.219	-21.458	-14.603
64483.420	18.179	17.285	43.809	-12.219	61.989	-0.894	-8.941	-3.576
64483.428	17.583	14.603	39.637	-9.835	60.201	0.894	-5.960	4.768
64483.436	15.795	8.345	45.002	-16.391	57.220	-6.557	-12.219	-10.729
64483.444	30.696	19.670	47.088	-6.557	59.009	2.682	-4.768	15.497
64483.452	20.862	16.391	43.213	-6.258	58.413	1.490	-6.855	-2.980
64483.460	21.756	20.564	46.790	-3.874	55.730	5.662	-4.768	13.411
64483.468	15.199	8.047	35.763	-24.736	45.002	-7.749	-16.689	16.689
64483.476	11.623	-1.788	30.696	-23.246	37.551	-13.709	-21.160	-5.662
64483.484	32.485	22.352	44.703	-2.086	59.307	5.960	-1.192	21.160
64483.492	20.862	14.901	45.598	-7.153	63.181	-2.980	-5.960	-9.835
64483.500	18.775	21.756	51.558	0.894	67.055	4.172	-1.490	4.470
64483.508	24.438	13.113	39.339	-5.364	60.499	5.364	-2.384	13.113
64483.516	30.100	17.583	53.644	-11.325	71.228	2.682	-2.682	4.172
64483.524	38.147	33.677	56.922	-3.874	87.917	7.153	3.278	20.266
64483.532	27.120	24.140	50.664	-14.901	87.619	-4.768	-7.451	-1.788
64483.540	32.187	22.948	49.770	-15.497	78.976	-1.490	-4.470	8.047
64483.548	32.783	26.524	62.287	-15.199	89.109	-2.980	-4.172	13.411
64483.556	21.756	11.623	52.154	-22.054	96.560	-12.815	-14.603	-4.768
64483.564	26.822	16.093	41.425	-16.391	92.089	-2.980	-6.855	20.564
64483.583	23.544	12.517	46.492	-24.140	88.811	-8.345	-10.431	-2.086
64483.591	32.187	20.266	51.558	-13.709	97.156	0.894	-0.894	2.682
64483.599	19.670	17.583	45.896	-18.775	91.493	-3.576	-8.345	4.768
64483.607	17.881	7.153	40.233	-29.504	86.129	-9.835	-12.219	-10.431
64483.615	18.775	12.219	33.081	-29.802	80.168	-2.980	-9.835	8.941
64483.623	8.345	0.596	40.531	-33.975	79.572	-11.921	-15.199	-12.517
64483.631	12.815	5.066	46.492	-21.458	86.427	-3.874	-6.258	0.894
64483.639	8.941	0.596	32.783	-29.802	78.678	-8.047	-11.623	2.086
64483.647	15.497	8.345	39.935	-27.716	80.466	-1.788	-6.557	-6.258
64483.655	14.603	8.345	30.994	-21.458	78.380	-2.384	-6.258	10.431
64483.663	1.192	-4.172	30.994	-29.206	73.910	-11.325	-12.517	-12.815
64483.671	15.199	6.557	44.405	-16.093	82.552	1.192	-3.874	4.470
64483.679	12.815	-0.298	24.736	-25.630	71.824	-6.557	-11.325	4.172
64483.687	12.815	1.192	30.100	-22.948	78.976	-8.941	-11.623	-10.729
64483.695	22.352	10.729	45.002	-16.391	81.360	-0.298	-3.278	13.411
64483.703	18.775	11.325	42.915	-10.133	78.678	-3.874	-3.278	-3.874
64483.711	29.206	21.458	51.558	-1.490	81.062	3.278	1.788	8.047
64483.719	21.160	19.670	37.849	-6.557	73.910	0.596	-1.490	11.027
64483.727	20.862	9.835	34.571	-5.066	69.141	-0.596	-3.874	-7.153
64483.735	22.352	12.517	42.021	-5.960	59.009	-1.788	-10.133	15.795
64483.743	8.941	2.980	36.061	-17.583	56.028	-10.729	-14.305	-4.768
64483.751	22.054	16.093	42.021	-5.662	65.267	2.980	-3.576	5.960
64483.759	17.285	9.835	33.975	-12.517	61.691	-3.874	-10.431	5.662
64483.767	17.285	10.431	38.147	-9.537	59.903	1.490	-5.662	-6.855
64483.775	22.948	18.775	34.869	-8.643	59.307	7.749	-1.192	15.199
64483.783	12.815	6.258	33.379	-21.458	60.797	3.874	-3.576	-7.153
64483.791	9.537	-0.894	24.736	-22.650	61.393	6.258	-3.278	5.662
64483.799	5.662	-6.557	19.073	-27.120	58.711	1.192	-6.855	10.431
64483.798	0.298	-12.517	16.987	-37.849	50.962	-4.768	-11.325	-8.345
64483.806	12.815	5.364	25.332	-27.120	59.307	7.451	1.192	18.477
64483.814	0.298	-5.662	21.160	-31.292	57.518	-2.682	-8.345	-8.345
64483.822	-1.192	-10.431	14.007	-33.081	59.307	-4.470	-10.729	1.490
64483.830	8.345	-8.047	25.034	-31.888	59.605	-2.384	-8.643	9.537
64483.838	-2.086	-4.470	21.160	-28.014	55.730	-3.576	-9.239	-8.345
64483.846	11.921	5.662	27.120	-27.120	56.624	2.980	-2.384	13.709
64483.854	2.086	-6.557	19.073	-33.379	49.770	-11.027	-13.411	-13.411
64483.862	8.345	-3.576	19.073	-22.054	55.134	-0.894	-6.557	2.384
64483.870	6.258	-3.576	21.160	-29.802	55.432	-2.980	-9.537	4.172
64483.878	5.364	-7.451	24.736	-32.783	54.538	-5.662	-9.835	-10.431
64483.886	6.855	1.788	16.987	-25.332	49.472	1.490	-2.980	16.689
64483.894	-0.298	-12.517	16.689	-25.630	41.425	-7.451	-13.411	-7.153
64483.902	6.855	-0.596	16.093	-16.689	48.578	-0.894	-9.835	-0.298
64483.910	3.874	-1.490	13.709	-19.372	41.425	-3.576	-10.431	3.576
64483.918	5.066	-5.662	20.266	-16.093	46.194	-1.192	-7.153	-5.364
64483.926	7.153	-4.768	19.670	-21.756	43.213	-2.980	-8.941	12.517
64483.934	-8.047	-20.862	6.855	-38.147	36.955	-8.941	-13.411	-14.305
64483.942	1.490	-14.305	11.027	-22.948	38.743	-0.894	-8.047	1.490
64483.950	-6.557	-13.411	5.960	-22.948	27.418	-3.576	-13.411	8.345
64483.958	-22.948	-24.438	-4.172	-34.869	16.689	-4.172	-15.795	-8.941
64483.966	22.948	9.835	36.657	-7.749	56.028	10.133	0.596	21.160
64483.974	12.815	3.278	26.822	-21.458	56.326	-2.086	-8.047	2.682
64483.982	20.564	5.364	36.359	-19.372	62.585	3.576	-4.768	11.027
64483.990	21.160	2.384	39.041	-27.418	49.472	-5.066	-14.007	6.855
64483.998	16.093	8.941	40.531	-19.670	54.538	-6.258	-12.219	-10.431
64484.006	22.650	2.980	33.379	-10.431	60.201	0.894	-6.258	19.073
64484.014	7.153	0.894	26.524	-22.054	52.154	-10.729	-16.987	-3.874
64484.023	19.670	8.941	35.167	-19.670	51.558	-7.153	-13.709	6.557
64484.031	14.901	0.298	27.120	-19.372	44.405	-8.941	-16.391	7.153
64484.039	5.364	-7.749	29.802	-22.948	46.492	-12.219	-18.775	-10.729
64484.047	11.325	2.980	18.775	-12.517	50.366	-5.364	-12.815	9.835
64484.055	14.603	6.855	25.332	-17.285	52.154	-8.345	-14.901	-7.749
64484.063	28.014	14.007	47.684	-6.855	54.836	1.490	-1.490	6.855
64484.071	14.901	-0.894	31.888	-11.921	46.194	-3.874	-5.662	1.788
64484.079	8.643	-6.258	19.968	-19.670	51.856	-14.007	-14.305	-18.179
64484.087	21.160	10.431	28.610	-10.729	53.942	-3.576	-4.768	13.411
64484.095	7.451	-1.490	26.822	-16.093	42.319	-9.537	-13.709	-11.921
64484.103	12.517	3.278	28.312	-9.537	49.472	-4.470	-8.643	-5.960
64484.111	19.670	5.662	18.775	-7.153	47.982	-3.874	-7.153	3.278
64484.119	19.372	2.682	23.246	-4.768	48.876	-5.066	-7.153	-8.047
64484.127	15.199	1.192	28.610	-4.768	39.339	-2.980	-7.451	7.153
64484.135	8.941	-3.874	27.120	-10.729	47.982	-5.364	-7.451	-11.921
64484.143	7.749	0.298	19.670	-14.305	48.578	-4.172	-7.153	-2.086
64484.151	14.007	9.537	18.775	-10.133	42.915	-5.960	-9.835	5.960
64484.159	16.093	3.576	22.948	-5.960	36.061	-6.855	-9.239	-7.153
64484.167	23.842	15.795	33.081	1.192	39.637	0.000	-7.749	20.266
64484.175	17.285	8.345	29.206	0.298	46.790	-9.835	-15.199	2.384
64484.183	15.795	3.874	24.438	-6.258	42.021	-12.219	-17.881	3.576
64484.191	20.862	13.113	31.888	0.000	48.876	-6.258	-11.027	11.325
64484.199	10.431	6.557	25.034	-8.941	36.359	-12.517	-18.179	-6.557
64484.207	23.246	11.325	30.100	-5.364	40.531	-4.768	-11.921	24.140
64484.215	9.239	-2.384	20.862	-14.901	24.736	-12.815	-17.285	4.470
64484.223	14.901	7.749	19.968	4.470	31.888	-2.682	-8.345	10.729
64484.231	15.795	17.285	24.736	5.662	33.081	-0.298	-8.047	19.670
64484.239	16.391	11.623	29.802	-4.172	33.081	-9.835	-11.623	-3.278
64484.249	20.564	16.689	28.312	1.490	36.061	-5.066	-5.662	21.756
64484.257	8.941	5.364	20.862	-2.086	25.034	-14.007	-17.285	-6.258
64484.265	18.179	6.557	18.477	7.153	21.160	-5.066	-8.345	6.258
64484.273	17.881	5.662	22.352	-4.768	21.756	-8.345	-10.729	13.113
64484.281	21.458	10.729	32.783	-4.768	33.379	-9.537	-14.603	-9.239
64484.289	20.564	23.246	21.756	6.557	32.783	-0.596	-7.451	18.477
64484.297	13.411	11.027	22.054	3.278	29.206	-1.788	-8.643	2.682
64484.305	22.054	10.431	25.332	7.451	32.783	-2.980	-11.027	11.325
64484.313	17.881	16.391	24.140	1.490	42.617	-4.470	-11.027	13.411
64484.321	18.775	12.219	22.948	-3.576	45.896	-6.557	-10.133	-3.278
64484.329	23.246	19.073	18.775	5.960	48.578	2.384	1.788	20.266
64484.337	4.470	-2.384	15.199	-15.795	39.637	-14.603	-11.921	-7.749
64484.345	1.490	-5.960	9.537	-17.881	44.107	-10.133	-7.451	-1.788
64484.353	0.298	-3.576	8.941	-29.504	48.876	-11.325	-8.047	7.451
64484.361	-22.948	-30.696	-9.835	-58.413	35.763	-15.795	-18.477	-9.239
64484.369	-10.133	-11.921	-19.372	-34.571	34.869	-7.749	-11.921	17.285
64484.377	-5.960	-3.576	2.682	-18.477	34.571	-14.901	-13.709	-7.749
64484.385	9.239	11.027	4.172	7.749	31.590	1.788	4.768	5.364
64484.393	-5.364	-2.086	-27.418	5.364	4.172	0.000	6.557	11.623
64484.401	-28.014	-26.226	-49.174	-2.384	-28.014	-11.027	-5.662	-17.881
64484.409	-25.332	-16.093	-59.009	14.007	-42.915	-5.662	-0.298	6.258
64484.417	-44.107	-29.504	-73.910	12.815	-55.730	-5.066	2.086	-13.411
64484.425	-45.300	-27.120	-82.552	23.544	-66.161	3.874	10.133	2.682
64484.433	-51.558	-36.359	-90.301	14.603	-73.612	0.000	9.537	15.199
64484.441	-47.684	-30.696	-87.619	17.881	-70.632	1.788	13.709	0.596
64484.449	-49.174	-28.610	-95.367	20.862	-85.831	6.258	14.305	18.477
64484.457	-64.969	-45.896	-93.281	6.855	-87.321	-5.364	2.086	-8.941
64484.465	-55.432	-38.743	-88.513	10.133	-72.122	0.298	9.835	2.384
64484.473	-55.730	-42.319	-92.685	16.689	-76.592	2.682	13.113	9.835
64484.481	-54.538	-36.359	-86.129	22.650	-76.592	4.768	14.305	-5.364
64484.489	-47.684	-20.862	-83.148	33.975	-78.082	16.987	22.352	23.544
64484.497	-63.479	-38.743	-92.685	19.968	-85.533	5.662	13.113	-1.490
64484.505	-49.770	-31.888	-90.003	29.802	-77.188	20.564	23.842	11.921
64484.513	-52.154	-39.935	-97.454	19.372	-75.698	12.815	18.179	15.497
64484.521	-68.545	-50.962	-100.732	6.855	-87.917	-0.894	7.749	-11.623
64484.529	-62.287	-43.511	-102.222	19.372	-87.321	11.027	16.987	20.862
64484.537	-73.612	-56.624	-104.010	4.470	-92.089	1.192	7.749	-5.364
64484.545	-67.055	-48.578	-95.367	11.027	-87.917	5.364	13.113	-0.596
64484.553	-68.545	-50.068	-100.136	20.266	-87.023	8.345	16.689	11.325
64484.561	-67.651	-53.644	-95.367	16.689	-90.897	6.557	12.219	-3.874
64484.569	-60.201	-41.723	-96.560	14.305	-92.089	14.305	15.497	18.775
64484.577	-63.181	-46.492	-93.579	12.517	-84.043	12.219	14.901	-4.172
64484.585	-57.817	-41.723	-92.983	19.670	-75.400	14.603	15.795	4.172
64484.593	-61.095	-38.147	-90.301	20.266	-81.956	13.411	10.729	8.643
64484.601	-57.518	-37.551	-84.341	25.332	-74.208	14.007	11.623	-5.960
64484.609	-47.088	-27.716	-82.254	31.590	-70.333	24.736	23.246	20.564
64484.617	-63.479	-45.002	-90.599	17.285	-79.572	13.113	13.709	-0.596
64484.625	-57.817	-39.935	-88.513	27.120	-71.824	16.987	16.987	9.537
64484.633	-49.174	-33.975	-79.572	23.842	-67.055	11.027	14.901	13.709
64484.641	-50.664	-29.206	-75.698	28.014	-68.545	8.047	14.007	-8.345
64484.649	-52.452	-29.206	-86.427	26.226	-71.526	11.921	10.431	15.199
64484.657	-59.307	-38.743	-91.195	17.583	-74.506	2.086	2.384	-9.835
64484.665	-49.472	-33.081	-81.658	26.226	-66.459	10.431	12.815	0.298
64484.673	-46.194	-28.014	-74.804	26.822	-58.115	17.583	17.583	8.047
64484.681	-48.280	-33.975	-69.141	24.736	-59.903	16.093	16.689	-8.047
64484.689	-51.260	-38.147	-87.023	17.583	-68.843	13.113	13.113	15.199
64484.698	-58.711	-44.405	-93.877	12.517	-74.804	6.855	7.153	1.490
64484.706	-44.703	-38.147	-86.129	25.332	-64.373	19.670	19.670	19.073
64484.714	-51.856	-38.147	-85.533	18.179	-68.247	17.285	17.583	17.583
64484.722	-56.028	-42.915	-84.043	12.219	-64.075	9.537	12.219	2.980
64484.730	-43.809	-29.504	-80.466	28.312	-59.903	18.775	19.372	30.100
64484.738	-53.644	-37.253	-77.486	22.948	-65.863	7.451	8.643	1.788
64484.746	-50.366	-40.531	-78.380	20.862	-67.353	13.709	11.921	7.153
64484.754	-54.538	-41.723	-90.003	14.901	-73.910	14.007	12.219	17.285
64484.762	-61.393	-52.154	-87.023	14.901	-74.804	7.749	10.133	-7.451
64484.770	-51.558	-42.915	-85.533	22.948	-69.141	19.073	20.564	17.881
64484.778	-59.903	-44.405	-90.003	16.391	-75.102	15.199	16.391	0.000
64484.786	-59.605	-40.233	-88.215	20.862	-75.698	16.391	14.007	6.855
64484.794	-66.459	-50.068	-97.454	11.921	-86.129	10.431	8.643	8.941
64484.802	-67.353	-53.942	-97.454	13.113	-83.447	8.941	11.921	-8.345
64484.810	-58.115	-42.319	-84.341	22.054	-75.102	18.477	18.179	17.285
64484.818	-56.624	-45.896	-77.486	18.775	-71.228	15.795	17.285	4.470
64484.826	-51.856	-42.915	-78.082	19.968	-77.784	16.093	16.689	11.921
64484.834	-49.770	-34.571	-77.486	29.802	-74.208	19.372	20.564	18.477
64484.842	-51.558	-31.590	-79.870	35.167	-72.122	17.881	17.881	0.596
64484.850	-34.869	-16.391	-66.161	47.386	-67.055	33.975	31.292	27.418
64484.858	-40.829	-26.822	-67.651	36.657	-72.420	21.160	24.140	1.490
64484.866	-40.531	-28.908	-66.757	39.935	-67.949	20.564	22.352	5.066
64484.874	-43.511	-28.014	-64.969	40.531	-70.333	18.775	21.160	11.325
64484.882	-45.002	-24.438	-72.122	44.703	-69.737	17.583	21.458	-7.749
64484.890	-32.783	-12.517	-69.141	48.578	-67.055	25.332	28.312	14.007
64484.898	-56.922	-34.869	-77.784	29.206	-85.831	7.153	12.219	-11.623
64484.906	-51.260	-33.081	-75.996	39.041	-77.486	16.093	20.564	2.682
64484.914	-47.684	-30.696	-75.996	39.339	-70.035	16.093	22.650	8.047
64484.923	-55.134	-36.955	-80.168	32.783	-73.612	9.537	14.007	-11.921
64484.931	-45.598	-26.822	-70.333	44.107	-72.122	14.007	18.477	12.517
64484.939	-46.492	-29.206	-56.028	43.809	-68.247	5.662	12.517	-11.027
64484.947	-28.610	-9.835	-49.174	56.922	-64.969	8.345	12.219	2.682
64484.955	-8.345	11.027	-33.975	72.122	-49.770	9.537	12.815	11.325
64484.963	14.007	34.571	-7.451	92.089	-35.167	10.729	15.199	-6.855
64484.971	54.836	81.062	27.418	123.978	-16.987	21.160	20.564	19.968
64484.979	88.811	120.401	64.671	154.972	6.557	18.477	21.160	0.000
64484.987	132.918	163.913	106.096	195.205	33.975	34.869	39.637	19.670
64484.995	146.925	175.834	120.103	202.358	42.021	25.034	32.187	16.689
64485.003	147.223	176.430	133.812	196.397	51.558	12.517	20.862	-7.451
64485.011	140.369	171.959	123.382	192.225	43.511	16.987	23.246	20.564
64485.019	113.547	141.561	101.030	167.191	25.928	12.219	18.775	3.278
64485.027	93.579	119.209	80.168	148.714	15.199	17.583	21.160	8.345
64485.035	74.208	96.560	59.307	132.918	-0.298	17.881	21.160	13.411
64485.043	49.770	73.910	36.061	111.163	-17.583	15.199	15.795	-6.855
64485.051	38.147	61.095	6.258	100.434	-26.226	15.497	17.285	12.815
64485.059	20.266	39.339	2.086	83.148	-38.445	8.345	13.113	-12.815
64485.067	20.266	41.127	-0.298	85.533	-42.021	18.775	21.458	2.980
64485.075	14.007	33.677	-5.066	81.360	-45.300	21.160	22.948	12.219
64485.083	0.596	21.756	-8.047	71.228	-46.790	15.497	14.007	-8.047
64485.091	2.682	18.775	-16.987	68.843	-53.346	18.477	15.199	17.583
64485.099	-12.219	-1.192	-31.292	50.366	-64.075	7.451	7.153	-7.451
64485.107	-3.576	5.960	-30.398	59.903	-54.240	15.795	19.073	2.384
64485.115	-10.431	4.768	-30.398	56.028	-58.711	13.709	15.497	6.557
64485.123	-14.603	2.384	-35.465	54.836	-63.777	12.517	12.219	-16.391
64485.131	-9.835	5.066	-29.802	59.605	-63.181	17.583	17.285	9.537
64485.139	-24.438	-10.431	-36.061	45.896	-69.439	6.258	8.643	-11.921
64485.137	-19.073	-6.557	-38.147	45.300	-70.333	11.623	15.199	-4.470
64485.145	-24.140	-10.133	-39.935	38.445	-65.863	8.643	12.219	-2.980
64485.153	-27.120	-11.325	-39.339	37.253	-58.115	11.921	13.709	-12.517
64485.161	-20.266	-2.980	-42.319	43.511	-51.558	23.246	25.332	16.987
64485.169	-27.716	-12.815	-42.319	31.292	-46.194	18.477	20.564	-1.788
64485.177	-26.226	-14.603	-39.637	26.524	-50.366	11.921	16.987	2.384
64485.185	-32.485	-19.670	-45.598	20.862	-53.942	6.855	9.835	4.470
64485.193	-34.869	-24.438	-42.915	21.756	-44.405	7.153	8.941	-10.431
64485.201	-26.226	-14.901	-41.723	25.928	-32.187	14.603	18.775	16.391
64485.209	-39.935	-26.226	-52.452	7.451	-37.849	1.490	6.855	-11.921
64485.217	-35.465	-20.266	-46.492	11.325	-33.975	6.855	7.749	-1.192
64485.225	-35.167	-21.160	-52.154	7.749	-33.379	5.662	6.855	7.451
64485.233	-35.465	-18.179	-44.107	11.623	-32.485	1.788	3.278	-8.941
64485.241	-30.100	-11.921	-35.763	16.987	-20.564	5.066	7.451	11.027
64485.249	-31.590	-20.564	-30.100	9.537	-24.140	-2.682	1.490	-10.729
64485.257	-22.352	-14.305	-32.485	14.901	-25.630	3.278	4.470	2.086
64485.265	-25.332	-14.305	-37.849	12.219	-26.226	2.980	4.172	4.470
64485.273	-24.736	-13.113	-41.127	14.305	-22.948	4.172	9.537	-10.431
64485.281	-18.179	-2.980	-41.723	18.179	-27.418	10.729	13.411	22.352
64485.289	-27.120	-11.027	-31.888	17.583	-34.273	2.086	3.576	0.298
64485.297	-23.842	-11.921	-34.869	20.266	-25.630	6.258	5.364	1.490
64485.305	-28.014	-14.603	-37.849	14.603	-25.630	5.364	5.066	4.172
64485.313	-30.994	-16.093	-30.696	15.199	-29.504	4.768	6.258	-11.027
64485.321	-25.034	-16.689	-36.359	12.517	-35.465	4.172	6.258	14.305
64485.329	-28.312	-22.054	-35.167	8.643	-30.398	1.192	4.172	0.596
64485.337	-26.524	-17.285	-38.743	17.285	-31.888	5.662	8.643	8.643
64485.345	-30.100	-19.968	-45.598	10.729	-32.783	2.682	7.153	8.345
64485.353	-31.888	-23.246	-41.723	9.239	-35.167	1.490	3.874	-5.066
64485.361	-21.756	-11.921	-33.081	20.564	-33.975	10.133	10.133	14.305
64485.369	-34.273	-17.881	-38.743	15.497	-36.359	2.384	2.980	-8.047
64485.377	-22.352	-11.027	-31.888	22.948	-29.206	8.643	7.153	7.153
64485.385	-19.968	-9.835	-25.332	22.352	-26.822	9.239	7.153	9.537
64485.393	-30.696	-23.544	-33.975	8.345	-36.955	-4.470	-3.576	-12.815
64485.401	-17.881	-6.258	-32.187	33.081	-36.061	12.219	10.729	16.391
64485.409	-28.014	-13.709	-32.783	26.226	-44.703	9.239	7.153	-4.768
64485.417	-27.716	-16.987	-32.783	21.458	-39.637	6.557	6.258	1.490
64485.425	-36.955	-22.054	-33.081	10.431	-35.763	5.066	3.576	7.749
64485.433	-33.379	-22.650	-27.716	11.325	-37.849	4.172	4.172	-9.835
64485.441	-18.179	-11.623	-24.438	24.736	-29.802	12.517	10.133	10.431
64485.449	-25.332	-18.179	-19.968	17.583	-27.418	2.384	2.980	-11.325
64485.457	-16.689	-8.941	-17.881	18.775	-23.246	10.431	11.325	1.490
64485.465	-15.497	-8.047	-22.352	24.736	-18.179	12.517	12.219	6.855
64485.473	-17.583	-8.941	-16.987	24.140	-17.583	8.047	8.345	-5.662
64485.481	-11.325	-5.662	-19.372	25.034	-19.968	12.219	12.517	16.391
64485.489	-33.379	-23.842	-30.100	7.749	-31.292	-1.192	-2.384	-3.874
64485.497	-31.590	-19.073	-28.312	10.133	-32.187	1.192	-2.086	6.258
64485.505	-26.524	-17.583	-25.332	10.729	-22.650	8.047	2.682	5.364
64485.513	-28.908	-20.266	-29.504	4.470	-23.246	6.855	1.192	-9.835
64485.521	-25.034	-14.305	-28.014	9.537	-27.120	15.497	4.172	16.987
64485.529	-30.100	-18.477	-28.908	6.855	-28.908	12.219	3.278	4.470
64485.537	-22.948	-12.219	-26.524	19.073	-33.379	26.822	20.266	21.756
64485.545	-22.054	-12.517	-22.948	16.093	-23.842	22.054	14.901	23.842
64485.553	-20.266	-13.113	-11.325	8.345	-8.941	4.768	2.980	-5.662
64485.561	-11.027	-8.941	-7.451	2.086	4.768	15.795	9.835	17.583
64485.569	-18.775	-18.179	1.788	-12.815	16.391	4.470	-3.278	-9.835
64485.577	-16.391	-17.583	-0.894	-15.497	11.325	6.258	-4.172	3.576
64485.587	-14.901	-16.987	-2.384	-18.477	15.199	6.258	-2.980	12.219
64485.595	-8.047	-12.815	13.709	-8.345	30.398	3.278	-3.278	-3.576
64485.603	-6.258	-9.835	2.682	-8.047	22.948	5.364	-4.768	21.756
64485.611	-17.881	-25.034	-13.411	-22.650	10.729	-6.557	-14.007	-5.662
64485.619	-21.160	-20.266	-6.557	-19.670	7.749	-3.874	-12.815	-0.894
64485.627	-20.862	-17.285	2.384	-15.199	6.258	2.980	-7.451	10.133
64485.635	-13.709	-15.497	-1.490	-11.027	6.557	-1.788	-9.239	-2.086
64485.643	-12.219	-14.007	-3.576	-12.815	8.941	0.596	-11.921	13.411
64485.651	-32.485	-33.379	-9.239	-22.948	-3.576	-10.431	-23.842	-14.007
64485.659	-29.802	-37.253	-16.391	-24.140	-8.345	-6.855	-18.775	-3.576
64485.667	-37.253	-45.598	-24.736	-36.955	-14.901	-7.451	-19.968	2.086
64485.675	-43.511	-50.068	-28.908	-40.829	-16.093	-11.921	-24.140	-14.007
64485.683	-34.869	-39.041	-26.226	-31.888	-17.285	-10.729	-21.160	2.682
64485.691	-37.253	-43.809	-25.034	-35.465	-11.623	-16.093	-24.140	-11.921
64485.699	-22.650	-30.398	-10.133	-26.226	-3.278	-5.364	-12.815	8.345
64485.707	-30.696	-38.445	-14.901	-38.147	-8.047	-10.431	-20.862	2.980
64485.715	-33.677	-44.107	-16.093	-34.869	-11.921	-11.027	-22.054	-14.603
64485.723	-25.034	-33.081	-25.034	-28.610	-17.881	-0.894	-12.219	11.027
64485.731	-41.127	-43.213	-33.677	-34.869	-26.524	-9.835	-20.564	-17.583
64485.739	-29.206	-30.994	-20.266	-19.670	-14.901	-3.874	-14.901	-5.364
64485.747	-30.100	-34.273	-25.034	-20.862	-22.054	-7.153	-16.093	2.682
64485.755	-28.610	-35.763	-18.775	-22.352	-16.689	-1.788	-11.325	-10.133
64485.763	-24.438	-28.610	-25.332	-23.246	-21.458	0.000	-7.749	9.239
64485.771	-22.650	-21.458	-16.093	-16.391	-20.266	-12.815	-18.179	-12.219
64485.779	-15.795	-16.689	-12.517	-6.855	-13.709	-7.749	-16.391	-1.788
64485.787	-26.822	-29.206	-22.650	-16.987	-19.073	-5.960	-14.603	5.662
64485.795	-36.359	-30.994	-25.630	-21.160	-30.100	-10.431	-19.073	-10.729
64485.803	-18.179	-15.795	-15.795	-12.219	-16.689	4.172	-5.364	15.795
64485.823	-21.458	-21.160	-14.901	-15.199	-16.689	5.066	-6.258	-5.066
64485.831	-26.524	-34.869	-23.544	-20.266	-31.590	-3.576	-17.285	-3.576
64485.839	-33.677	-40.829	-24.140	-30.696	-28.908	-8.643	-24.736	0.298
64485.847	-27.120	-29.802	-15.795	-18.179	-23.544	-5.960	-19.670	-14.603
64485.855	-25.630	-24.140	-23.842	-11.921	-26.524	0.000	-12.517	6.557
64485.863	-36.061	-35.167	-28.908	-15.497	-30.994	-4.172	-12.219	-12.219
64485.871	-23.246	-26.226	-21.160	-11.325	-18.477	8.643	-3.278	8.941
64485.879	-25.332	-23.842	-19.670	-10.729	-23.544	5.364	-7.451	9.835
64485.887	-27.716	-31.292	-20.564	-17.881	-34.571	-4.768	-18.477	-11.623
64485.895	-24.140	-29.504	-29.206	-19.073	-36.955	-2.384	-14.901	14.603
64485.903	-32.187	-28.908	-21.160	-15.795	-24.140	-5.960	-15.199	-1.788
64485.911	-9.537	-15.795	-3.576	2.086	-10.431	3.278	-8.941	11.027
64485.919	-10.133	-15.497	-10.133	0.596	-21.458	2.384	-8.941	6.557
64485.927	-23.842	-30.398	-27.120	-6.258	-31.590	-7.153	-15.795	-14.007
64485.935	-11.921	-20.266	-23.842	-0.596	-28.312	6.557	-5.066	23.246
64485.943	-27.418	-29.206	-14.603	-20.564	-37.849	-12.815	-23.842	-0.596
64485.951	-28.610	-29.802	-25.034	-16.689	-39.637	-8.643	-19.372	7.153
64485.959	-32.783	-34.571	-41.425	-19.073	-36.061	-8.643	-15.497	9.835
64485.967	-32.187	-37.253	-30.696	-12.219	-39.041	-9.537	-15.497	-9.239
64485.975	-22.352	-24.438	-27.120	-5.960	-35.763	-5.662	-14.007	12.815
64485.983	-28.014	-28.014	-21.756	-13.113	-36.955	-9.239	-15.199	-8.345
64485.991	-26.524	-32.783	-27.120	-16.391	-47.088	2.980	-4.768	9.835
64485.999	-24.438	-27.418	-28.312	-11.921	-39.637	-5.066	-13.709	13.709
64486.007	-3.874	-8.047	-6.855	-0.298	-20.564	-5.364	-10.431	-1.788
64486.015	16.391	13.411	-0.596	14.007	-8.941	0.894	-5.364	16.987
64486.023	26.524	22.650	30.398	24.140	9.537	-6.855	-12.219	-6.557
64486.031	60.499	60.499	70.333	39.339	32.783	6.855	-1.490	15.795
64486.039	58.115	62.585	66.161	34.571	30.696	-0.298	-8.941	12.219
64486.046	53.644	43.511	51.558	23.246	35.465	-6.258	-8.345	-3.874
64486.054	50.366	46.790	50.068	31.590	33.081	5.662	0.298	22.650
64486.062	45.300	38.445	53.048	16.987	32.485	-1.490	-5.662	-0.596
64486.070	52.452	50.664	52.750	26.226	32.485	3.874	-2.086	13.411
64486.078	48.578	49.770	43.213	25.034	28.908	9.239	-0.894	18.775
64486.086	51.260	48.578	54.836	25.630	37.849	10.431	-0.298	2.980
64486.094	48.280	47.684	50.962	23.842	46.194	10.431	-1.192	24.140
64486.102	32.187	28.014	39.935	10.431	36.061	-2.384	-11.921	1.490
64486.110	26.822	28.312	22.948	0.000	21.160	2.980	-9.239	14.305
64486.118	30.100	22.352	30.696	3.278	25.630	5.364	-4.768	12.517
64486.126	36.359	23.842	43.213	16.093	30.696	3.576	-7.153	-4.172
64486.134	33.975	33.677	36.061	14.007	24.736	4.470	-8.345	24.140
64486.142	16.689	23.544	28.908	2.682	14.901	-8.941	-17.285	3.874
64486.150	24.438	25.034	17.583	3.874	11.921	-4.768	-15.795	6.855
64486.158	32.187	29.504	25.630	8.643	19.372	-0.596	-9.239	8.941
64486.166	31.292	30.994	24.736	13.113	18.179	-0.894	-9.835	-0.894
64486.174	33.379	28.908	25.630	13.709	12.815	3.576	-8.643	21.160
64486.182	16.391	15.795	20.862	0.894	3.874	-5.066	-15.497	-3.874
64486.190	28.610	24.736	33.081	10.431	14.901	8.345	-4.172	10.729
64486.198	34.273	29.206	33.677	14.603	18.477	4.470	-7.749	14.007
64486.206	37.551	32.783	28.610	19.968	16.391	2.980	-7.451	0.894
64486.214	37.849	36.657	22.650	17.285	10.729	8.047	-4.470	20.862
64486.222	22.054	21.458	29.802	8.941	5.960	-3.576	-15.795	-2.980
64486.230	42.617	34.869	43.809	27.716	14.305	9.537	1.788	16.391
64486.238	30.696	22.650	24.140	14.007	2.384	-0.298	-10.133	10.133
64486.246	30.696	24.438	24.736	16.689	9.835	2.086	-7.451	-0.596
64486.254	33.975	28.312	21.160	18.775	6.855	9.239	-0.894	26.226
64486.262	24.736	15.497	19.073	9.835	0.298	3.874	-4.768	0.894
64486.270	33.379	34.571	28.908	23.246	8.345	11.921	-0.298	12.815
64486.278	26.226	31.590	26.524	17.583	5.960	5.960	-5.066	7.749
64486.286	21.458	22.948	21.458	13.113	2.980	0.894	-9.239	-3.874
64486.294	29.504	28.312	12.815	17.285	7.153	7.749	-5.960	26.524
64486.302	20.862	21.160	14.007	4.470	1.490	-4.470	-17.285	6.855
64486.310	14.007	16.391	7.153	-3.278	-1.788	2.384	-12.219	16.391
64486.318	19.372	24.438	8.047	10.431	-2.384	-2.682	-13.113	13.411
64486.326	35.763	41.127	29.504	35.465	5.364	-2.980	-10.133	4.172
64486.334	52.750	50.366	28.908	51.558	-1.490	6.557	-0.894	28.312
64486.342	52.452	56.624	27.120	64.075	-14.305	3.278	-3.874	4.768
64486.350	70.035	89.407	34.273	97.752	-23.842	11.623	6.557	23.246
64486.358	66.757	82.254	36.061	104.308	-32.783	14.901	13.411	25.332
64486.366	59.605	76.294	28.908	106.096	-40.233	12.219	9.835	11.027
64486.374	67.949	90.897	25.928	112.057	-41.127	16.391	12.815	35.465
64486.382	63.777	83.745	26.226	107.586	-45.002	9.835	9.835	9.239
64486.390	70.632	84.639	26.822	113.249	-46.492	15.199	13.709	25.630
64486.398	69.737	79.870	23.842	104.904	-42.319	19.372	19.073	27.716
64486.406	73.612	82.254	29.206	114.143	-36.657	26.226	27.418	13.709
64486.414	67.651	82.850	23.842	117.123	-50.068	22.650	20.266	34.571
64486.422	50.068	64.373	16.391	101.328	-53.346	10.133	7.749	14.901
64486.430	59.605	75.400	22.650	106.096	-47.684	21.458	19.968	21.160
64486.438	67.353	85.831	29.206	108.778	-40.233	31.590	28.014	26.226
64486.446	62.883	73.016	28.610	104.010	-48.280	22.948	18.775	9.239
64486.454	54.240	63.777	20.564	96.858	-55.432	16.093	12.219	20.564
64486.462	45.896	56.028	17.285	88.215	-57.518	8.941	8.345	0.596
64486.470	61.095	70.333	18.477	108.480	-50.664	18.775	20.266	13.411
64486.478	49.472	62.883	12.517	94.175	-62.585	11.623	8.643	9.537
64486.486	46.194	60.797	4.172	92.685	-63.479	4.470	7.153	-6.557
64486.487	61.393	79.274	13.411	108.480	-58.711	15.497	17.881	20.266
64486.495	57.220	66.459	27.120	103.116	-55.730	11.027	14.901	-3.874
64486.503	59.307	65.267	23.246	102.520	-53.048	15.199	15.795	16.093
64486.511	53.346	67.949	11.325	100.732	-59.009	14.007	13.709	20.564
64486.519	58.413	75.400	13.709	102.818	-53.644	12.219	11.623	1.490
64486.527	69.439	80.168	16.987	107.884	-47.684	16.987	16.689	26.226
64486.535	60.797	67.949	17.881	96.560	-52.452	13.113	13.411	3.874
64486.543	64.969	70.632	23.246	99.242	-54.836	18.477	14.305	20.266
64486.551	47.088	62.287	11.623	91.195	-60.499	11.623	5.662	20.266
64486.559	42.021	61.989	10.133	93.281	-59.009	7.451	3.278	-1.192
64486.567	59.903	72.420	17.881	104.606	-45.598	19.073	19.670	22.948
64486.575	42.915	45.896	1.490	87.619	-59.903	5.364	5.662	-0.596
64486.583	45.002	49.472	0.596	83.745	-65.267	15.199	12.815	11.623
64486.591	49.472	65.267	15.497	88.513	-50.962	12.219	11.027	11.921
64486.599	60.797	73.314	34.869	100.136	-43.213	12.517	11.623	2.086
64486.607	63.777	73.910	30.398	98.944	-42.915	14.901	11.325	22.650
64486.615	45.598	57.518	14.007	87.321	-48.578	3.278	-0.894	0.596
64486.623	47.088	59.009	16.093	92.089	-55.134	8.643	5.662	8.345
64486.631	39.637	48.876	5.066	75.996	-58.711	6.557	0.894	8.643
64486.639	40.233	47.386	5.662	76.890	-56.922	5.662	-0.894	-8.047
64486.647	51.260	64.075	20.564	92.983	-53.048	12.219	5.960	17.285
64486.655	47.982	59.307	20.266	87.917	-46.790	12.219	8.345	-1.788
64486.663	54.538	58.413	17.583	87.619	-44.703	19.968	16.391	14.305
64486.671	52.750	54.240	16.689	79.572	-43.809	13.113	11.027	9.537
64486.679	47.386	53.048	15.199	80.764	-46.194	8.643	10.133	-8.643
64486.687	51.260	58.711	4.768	81.956	-50.068	17.583	17.285	16.093
64486.695	41.425	47.684	8.345	77.188	-53.644	6.855	5.364	-5.960
64486.703	49.770	57.220	20.564	90.897	-50.068	9.537	7.749	4.768
64486.712	39.041	48.876	13.709	76.592	-50.366	9.835	6.855	8.941
64486.720	41.425	48.578	8.047	78.082	-47.088	13.709	9.537	-1.192
64486.728	34.273	41.127	-14.007	75.400	-61.989	6.855	0.000	20.266
64486.736	32.783	31.590	-2.980	64.373	-63.181	-2.980	-6.557	2.384
64486.744	50.366	55.134	12.517	79.274	-50.068	15.199	8.941	19.372
64486.752	39.041	52.154	11.921	72.718	-54.836	10.133	2.980	16.689
64486.760	37.551	47.982	12.517	72.718	-53.346	6.855	-0.596	3.278
64486.768	50.664	56.922	11.921	80.466	-47.088	15.497	8.643	28.610
64486.776	32.783	36.359	5.960	63.181	-55.432	4.172	-2.086	-2.980
64486.784	45.300	51.558	13.709	78.678	-52.154	14.007	8.643	6.855
64486.792	43.213	50.664	8.047	75.698	-54.240	13.411	6.855	17.583
64486.800	34.273	39.637	5.662	66.161	-54.836	10.431	6.557	0.298
64486.808	40.233	51.856	0.298	71.526	-56.028	19.968	15.199	20.862
64486.816	30.994	43.809	3.874	61.393	-52.750	17.881	14.007	2.086
64486.824	34.869	41.723	4.470	56.624	-42.617	16.391	10.431	18.477
64486.832	40.531	40.829	5.364	57.817	-36.657	13.709	9.835	23.544
64486.840	30.398	32.485	1.788	49.472	-33.081	4.470	4.172	-0.894
64486.848	38.743	48.578	-0.298	60.201	-22.948	12.815	13.411	21.756
64486.856	30.994	39.935	3.278	52.154	-22.352	0.000	2.682	-1.490
64486.864	39.339	49.770	18.179	47.982	-10.133	0.894	1.192	4.470
64486.872	31.888	40.531	9.537	42.319	-10.729	-2.086	-4.470	6.258
64486.880	37.849	44.405	6.557	51.260	-6.557	-1.490	-1.490	-8.643
64486.888	48.578	58.413	11.325	57.817	4.768	5.364	2.086	15.795
64486.896	32.485	45.300	15.795	47.386	-2.682	-0.894	-5.662	0.298
64486.904	38.147	41.723	19.073	50.068	5.364	8.643	3.278	16.391
64486.912	36.359	39.935	14.007	42.319	6.557	7.153	3.874	13.113
64486.920	42.617	42.319	21.458	44.405	8.643	6.557	6.258	-2.682
64486.928	46.194	53.644	8.941	47.684	12.815	13.113	7.749	20.564
64486.936	36.359	46.492	11.325	41.425	-0.596	7.749	4.172	-0.596
64486.944	41.723	48.578	23.544	51.856	11.921	14.901	8.941	10.133
64486.952	36.955	45.002	22.948	46.790	18.179	18.775	10.133	11.325
64486.960	29.504	29.504	5.960	31.590	1.490	16.093	7.451	0.894
64486.968	41.723	48.280	15.795	49.174	3.278	18.775	12.517	25.928
64486.976	19.968	36.061	-2.086	40.829	-12.219	-0.298	-1.788	-4.172
64486.984	25.928	38.743	-14.603	54.240	-17.285	5.066	3.278	5.960
64486.992	29.206	40.531	5.662	55.134	-10.133	7.749	2.682	12.219
64487.000	33.975	33.379	15.795	50.366	-4.768	7.749	2.682	1.788
64487.008	43.809	52.750	14.901	58.711	-0.298	19.670	13.113	21.458
64487.016	31.292	43.809	-0.894	52.452	-10.729	5.662	1.490	1.490
64487.024	36.955	42.915	5.960	52.750	-11.027	8.643	0.000	11.623
64487.032	36.657	42.319	7.451	56.624	-5.662	10.133	6.557	11.027
64487.040	38.743	47.386	23.246	68.545	3.576	22.352	19.670	2.980
64487.048	47.982	60.499	21.756	62.287	3.278	22.948	18.477	23.544
64487.056	27.120	42.617	-2.086	46.790	-15.199	2.980	1.490	-6.258
64487.064	27.418	33.975	1.490	50.962	-22.948	6.258	2.384	6.258
64487.072	33.379	34.869	3.278	55.432	-13.411	13.411	8.643	11.921
64487.080	28.610	34.273	6.557	52.452	-10.133	9.239	6.855	-4.470
64487.088	29.802	36.061	5.662	46.492	-16.093	12.219	5.662	16.391
64487.096	28.610	42.915	8.941	48.876	-11.921	14.305	9.239	4.172
64487.104	34.869	44.405	8.643	57.518	-7.451	23.842	18.179	12.517
64487.112	24.736	28.908	-1.788	39.637	-9.537	15.199	12.219	5.960
64487.120	16.689	23.544	-9.537	31.292	-11.623	10.729	6.855	-8.643
64487.128	27.120	39.339	-2.682	45.002	-11.027	17.881	11.027	16.987
64487.136	24.736	25.630	14.305	47.982	-8.047	11.921	9.239	-2.682
64487.144	36.657	42.617	16.391	56.028	-0.894	23.842	21.458	15.199
64487.152	28.610	39.041	2.980	47.982	-7.451	18.179	15.795	18.477
64487.162	10.729	21.458	-11.027	31.292	-20.862	5.960	0.894	-6.258
64487.170	20.266	27.418	-8.941	33.081	-12.815	14.901	7.451	16.689
64487.178	18.179	25.332	11.027	36.061	-5.662	16.689	11.027	0.298
64487.186	22.948	27.418	7.749	41.723	-6.258	23.544	15.199	16.689
64487.194	13.411	20.564	-2.086	33.677	-19.968	17.583	9.239	13.709
64487.202	-1.490	12.219	-21.160	22.352	-30.696	8.941	1.788	-0.894
64487.210	11.623	20.266	-16.987	28.312	-10.133	6.557	1.490	14.007
64487.218	-5.662	0.000	-25.034	2.682	-9.835	-8.941	-11.027	-9.537
64487.226	-9.239	-8.047	-23.544	-14.305	-2.086	-5.066	-10.431	-0.894
64487.234	-22.054	-27.418	-28.908	-24.736	5.066	-6.258	-13.411	-6.557
64487.242	-40.829	-48.280	-45.598	-44.107	-2.086	-15.199	-23.544	-20.266
64487.250	-42.021	-45.300	-54.240	-54.538	1.192	-12.219	-19.968	7.153
64487.258	-58.115	-61.989	-59.903	-70.333	-5.364	-21.160	-30.100	-13.113
64487.266	-44.703	-48.578	-51.558	-52.452	3.278	-2.384	-12.219	1.192
64487.274	-45.896	-48.578	-57.220	-43.213	-5.364	-4.470	-10.729	3.576
64487.282	-60.201	-59.605	-64.969	-62.585	-16.987	-14.305	-22.650	-18.477
64487.290	-46.790	-44.107	-60.201	-52.452	-8.047	-2.980	-16.987	9.537
64487.298	-50.366	-54.538	-52.154	-63.181	-4.470	-7.451	-19.670	-11.325
64487.306	-46.790	-46.790	-58.413	-51.260	-8.643	-4.768	-15.497	2.682
64487.314	-48.578	-49.472	-61.691	-42.021	-12.517	-1.192	-12.517	12.219
64487.322	-50.366	-45.896	-57.817	-41.127	-11.623	-2.980	-13.709	-0.596
64487.330	-37.253	-28.610	-45.598	-26.822	-0.298	11.325	-0.596	24.736
64487.338	-52.154	-50.366	-60.499	-42.915	-18.477	-2.682	-14.901	-5.066
64487.346	-49.770	-55.730	-71.824	-49.472	-19.968	-0.894	-13.709	7.749
64487.354	-48.876	-64.075	-62.287	-52.750	-18.775	1.192	-5.066	10.133
64487.362	-53.048	-53.644	-56.624	-47.982	-22.650	-0.298	-7.749	-8.345
64487.370	-45.002	-37.551	-60.499	-32.187	-14.305	10.133	0.000	11.623
64487.378	-54.836	-48.876	-63.777	-36.657	-19.968	-0.596	-9.239	-8.941
64487.376	-52.750	-50.366	-64.671	-42.319	-23.842	1.490	-8.941	2.682
64487.384	-53.346	-57.518	-73.612	-40.531	-29.206	2.980	-5.066	3.576
64487.392	-35.763	-30.398	-52.154	-11.623	-16.391	7.451	2.384	-11.325
64487.400	-28.908	-29.504	-52.452	-11.027	-19.670	20.266	10.729	22.650
64487.408	-47.684	-49.770	-51.856	-33.677	-34.273	1.788	-7.749	-8.643
64487.416	-45.002	-33.677	-51.558	-24.438	-24.736	4.470	-5.662	0.000
64487.424	-50.366	-41.127	-61.393	-27.418	-29.206	-2.086	-12.219	5.066
64487.432	-50.962	-43.511	-67.651	-32.485	-35.763	-2.980	-14.603	-6.855
64487.440	-44.405	-41.127	-64.075	-24.736	-30.100	1.192	-11.921	16.689
64487.448	-46.194	-51.856	-59.307	-28.312	-25.928	-3.576	-9.835	-11.921
64487.456	-41.127	-44.703	-59.903	-26.226	-28.908	1.192	-5.066	0.298
64487.464	-39.935	-34.571	-53.048	-26.822	-28.312	7.153	-0.298	14.305
64487.472	-50.068	-39.637	-55.134	-32.187	-30.100	-1.788	-11.623	-6.557
64487.480	-50.962	-41.127	-69.737	-26.524	-33.379	2.086	-9.239	9.537
64487.488	-63.181	-56.922	-65.863	-35.763	-39.041	-7.749	-17.285	-11.623
64487.496	-57.518	-56.028	-68.545	-33.677	-39.637	-9.239	-21.458	1.490
64487.504	-55.730	-50.664	-69.439	-31.888	-36.657	-8.047	-18.775	4.470
64487.512	-51.856	-45.002	-63.479	-25.332	-28.014	-4.470	-11.027	-8.345
64487.520	-47.088	-45.002	-61.691	-25.034	-26.524	3.576	-2.086	15.497
64487.528	-59.307	-60.797	-68.545	-37.849	-32.485	-9.835	-13.113	-7.153
64487.536	-53.048	-52.154	-58.115	-33.081	-33.975	-10.133	-14.007	5.066
64487.544	-53.942	-46.790	-58.711	-29.504	-36.657	-10.431	-17.285	7.153
64487.552	-44.107	-37.253	-50.068	-15.497	-27.120	-2.384	-8.047	-4.470
64487.560	-44.703	-39.935	-58.711	-22.352	-33.975	-2.384	-11.623	16.689
64487.568	-65.565	-60.499	-72.718	-40.531	-43.213	-15.199	-24.438	-9.239
64487.576	-48.876	-45.002	-60.499	-25.332	-33.081	-3.874	-15.795	1.788
64487.584	-33.975	-32.187	-40.531	-14.007	-24.736	2.384	-5.662	5.662
64487.592	-42.617	-50.664	-44.405	-23.544	-27.716	-6.557	-12.517	-10.431
64487.610	-37.849	-39.339	-52.750	-27.418	-30.100	-4.172	-11.623	6.557
64487.618	-42.319	-39.339	-51.856	-21.458	-25.928	-7.153	-11.027	-17.881
64487.626	-36.955	-30.398	-47.088	-10.431	-30.994	1.192	-8.941	-2.682
64487.634	-42.617	-31.888	-53.942	-12.815	-36.955	-3.576	-12.815	-2.980
64487.642	-45.300	-42.617	-47.386	-21.160	-32.783	-5.662	-14.007	-14.007
64487.650	-32.783	-36.061	-46.790	-21.160	-21.756	5.066	-1.788	11.623
64487.658	-47.982	-42.915	-48.280	-31.888	-26.226	-7.451	-13.709	-10.431
64487.666	-37.551	-30.100	-39.637	-22.948	-15.497	-7.153	-16.391	0.894
64487.674	-43.213	-38.743	-49.472	-35.167	-18.775	-14.305	-21.756	-1.788
64487.682	-46.194	-40.531	-52.750	-40.829	-12.517	-8.643	-16.689	-13.709
64487.690	-40.531	-37.849	-47.982	-42.021	-7.451	-4.470	-12.815	5.960
64487.698	-39.935	-43.511	-40.531	-40.233	0.596	-6.557	-13.411	-13.709
64487.706	-30.398	-28.908	-34.571	-24.736	14.305	-2.682	-11.027	-2.086
64487.714	-36.955	-31.292	-31.292	-28.908	17.881	-7.749	-9.537	-5.066
64487.722	-38.743	-39.339	-37.551	-37.551	16.987	-8.345	-9.537	-17.881
64487.730	-42.617	-38.147	-49.174	-43.809	5.960	-9.537	-15.497	6.557
64487.738	-50.068	-43.809	-48.280	-44.107	10.133	-23.544	-26.822	-19.073
64487.746	-43.213	-41.723	-45.002	-42.021	18.775	-14.007	-18.179	-6.557
64487.754	-51.260	-48.280	-50.366	-52.452	16.391	-12.815	-14.603	0.298
64487.762	-65.267	-59.605	-61.393	-60.201	-0.298	-27.120	-30.100	-17.285
64487.770	-56.028	-53.346	-62.883	-58.413	-2.384	-17.881	-22.948	8.941
64487.778	-65.565	-57.817	-59.009	-62.883	0.894	-21.756	-21.756	-19.968
64487.786	-56.922	-50.366	-52.452	-49.770	6.855	-12.219	-14.007	-9.537
64487.794	-56.028	-53.644	-57.518	-54.240	1.490	-8.345	-14.007	-2.086
64487.802	-55.730	-56.326	-55.134	-49.174	0.894	-7.749	-13.709	-16.093
64487.810	-44.405	-45.002	-49.770	-42.915	6.557	5.364	-4.768	12.815
64487.818	-52.750	-51.558	-47.386	-52.452	1.490	-0.298	-9.537	-10.133
64487.826	-50.664	-45.300	-50.664	-50.366	1.490	2.384	-8.345	-1.490
64487.826	-56.624	-55.730	-63.479	-55.730	1.490	-4.768	-13.113	-3.576
64487.834	-56.922	-56.922	-59.307	-52.452	0.000	-6.557	-12.815	-20.862
64487.842	-46.790	-51.260	-46.194	-52.750	-0.596	2.682	-7.451	6.258
64487.850	-56.326	-54.538	-49.770	-55.730	1.192	-9.239	-16.391	-16.391
64487.858	-47.684	-45.300	-46.194	-48.876	0.000	-6.258	-13.709	1.192
64487.866	-44.405	-42.617	-46.194	-37.551	1.490	-1.490	-5.960	2.086
64487.874	-50.962	-47.088	-51.558	-44.405	-0.596	-11.027	-14.603	-19.670
64487.882	-44.107	-39.637	-40.233	-38.147	2.086	-1.788	-8.047	7.749
64487.890	-48.578	-46.790	-40.829	-41.425	0.000	-3.874	-8.345	-6.557
64487.898	-41.127	-39.935	-45.300	-40.233	-0.894	5.364	-1.788	5.960
64487.906	-51.558	-40.531	-61.691	-40.233	-8.643	1.490	-6.855	3.576
64487.914	-56.624	-54.240	-54.240	-44.405	-8.047	-6.855	-14.603	-12.219
64487.922	-42.021	-39.935	-44.703	-36.657	-2.086	2.384	-3.874	12.815
64487.930	-42.021	-40.531	-37.551	-39.637	8.047	-8.941	-9.835	-14.305
64487.938	-36.955	-33.677	-36.657	-31.590	11.325	-0.298	-3.874	-2.682
64487.946	-47.386	-41.127	-48.876	-44.703	2.384	-5.662	-10.431	4.470
64487.954	-47.684	-42.021	-49.770	-44.405	0.298	-10.431	-13.709	-12.517
64487.962	-33.081	-27.120	-38.445	-32.783	5.364	-0.894	-5.662	12.219
64487.970	-35.465	-28.312	-32.783	-27.418	12.815	-1.788	-2.086	-9.835
64487.978	-26.822	-28.610	-34.273	-25.928	20.564	4.172	-1.490	11.921
64487.986	-29.802	-25.630	-33.975	-32.783	20.266	2.980	-6.258	15.199
64487.994	-38.147	-37.253	-35.465	-42.319	7.451	-8.047	-16.093	-10.431
64488.002	-34.869	-28.610	-31.888	-34.571	8.643	-2.682	-10.133	1.788
64488.010	-38.147	-31.292	-35.763	-39.339	9.537	-6.557	-12.815	-9.835
64488.018	-31.888	-26.524	-36.955	-32.783	12.815	0.298	-9.835	5.364
64488.026	-33.379	-32.485	-38.445	-35.465	13.113	0.298	-6.855	6.258
64488.034	-33.081	-33.677	-33.081	-39.637	16.689	-0.596	-8.345	-2.682
64488.042	-30.398	-29.802	-30.994	-29.802	14.603	1.788	-7.153	13.709
64488.050	-37.253	-37.551	-34.273	-34.869	12.517	-0.596	-6.557	-7.451
64488.058	-26.822	-24.140	-24.736	-27.120	20.266	12.815	5.066	4.172
64488.066	-34.571	-29.802	-33.677	-37.253	10.133	3.874	-3.278	5.364
64488.074	-35.465	-32.187	-38.445	-33.975	4.470	0.298	-5.364	-7.153
64488.082	-28.610	-23.544	-29.802	-22.650	8.345	7.153	-2.384	21.160
64488.090	-35.167	-32.485	-22.054	-29.504	8.643	-0.894	-7.749	-5.066
64488.098	-30.100	-30.696	-25.332	-30.696	11.623	7.153	-1.788	6.258
64488.106	-34.273	-35.465	-34.869	-36.657	6.855	6.258	-4.470	11.921
64488.114	-36.061	-34.869	-33.081	-36.955	5.066	-2.682	-9.835	0.000
64488.122	-34.273	-28.014	-34.571	-33.081	2.086	-0.894	-7.749	24.140
64488.130	-36.657	-33.081	-36.359	-35.763	2.682	-1.490	-7.749	2.384
64488.138	-27.716	-30.398	-38.445	-30.398	8.941	5.662	-4.172	8.345
64488.146	-37.849	-42.319	-30.398	-37.849	1.788	-4.470	-11.921	7.451
64488.154	-43.809	-37.253	-33.677	-38.743	0.000	-8.345	-15.199	-11.921
64488.162	-41.723	-34.869	-39.041	-40.829	-3.576	-3.576	-11.027	3.576
64488.170	-53.644	-47.684	-42.021	-49.472	-12.219	-12.219	-21.756	-11.325
64488.178	-43.213	-37.849	-37.551	-40.233	-6.258	-6.258	-14.901	1.490
64488.186	-41.127	-36.955	-34.273	-35.763	-3.874	-5.066	-12.517	5.364
64488.194	-38.445	-38.743	-33.081	-34.273	-2.682	-3.874	-11.623	-14.603
64488.202	-35.763	-38.445	-35.167	-34.869	-3.576	-3.874	-14.007	8.941
64488.210	-38.147	-38.445	-30.994	-36.955	-3.576	-5.066	-11.027	-4.768
64488.218	-21.458	-24.438	-18.775	-21.458	8.047	9.239	2.980	6.557
64488.226	-35.465	-36.657	-32.187	-32.485	-2.682	-2.384	-8.345	6.557
64488.234	-38.445	-43.213	-40.829	-37.849	-8.643	-8.643	-13.709	-7.153
64488.242	-37.253	-37.253	-41.723	-39.935	-14.305	-5.364	-12.815	15.199
64488.250	-40.531	-36.061	-32.187	-34.869	-9.835	-5.066	-11.921	-10.431
64488.258	-33.081	-32.187	-28.312	-27.418	-10.133	-1.788	-11.623	8.345
64488.266	-38.445	-40.531	-33.379	-32.783	-14.305	-5.364	-14.603	10.133
64488.276	-40.829	-43.511	-35.763	-35.763	-17.285	-1.490	-13.113	-3.278
64488.284	-29.504	-26.822	-32.485	-24.140	-9.239	11.325	1.788	17.285
64488.292	-37.849	-40.233	-31.292	-33.975	-7.749	4.172	-3.278	0.000
64488.300	-37.849	-38.445	-35.465	-32.485	-11.921	0.894	-8.941	11.027
64488.308	-44.703	-41.723	-42.021	-38.445	-11.623	-9.239	-17.881	7.153
64488.316	-46.790	-45.002	-31.590	-39.935	-9.239	-8.941	-16.391	-12.219
64488.324	-37.253	-37.551	-33.379	-31.888	-7.451	-2.086	-9.239	9.835
64488.332	-45.896	-49.472	-40.829	-41.127	-15.199	-12.517	-19.073	-11.325
64488.340	-42.021	-45.896	-43.213	-38.445	-17.285	-7.451	-18.179	-0.596
64488.348	-45.598	-43.213	-39.935	-42.319	-19.670	-11.325	-19.073	-2.682
64488.356	-42.319	-45.300	-28.610	-35.763	-11.325	-12.219	-16.093	-20.266
64488.364	-32.783	-31.888	-28.312	-26.822	-8.941	-2.682	-11.325	9.537
64488.372	-40.531	-38.445	-23.842	-34.571	-8.345	-9.537	-15.199	-16.391
64488.380	-33.081	-32.783	-17.583	-31.888	-3.874	-5.960	-10.133	-8.941
64488.388	-32.485	-33.379	-19.968	-33.379	-7.451	-5.066	-8.345	-9.835
64488.396	-33.975	-35.465	-19.670	-25.928	-8.345	-6.855	-11.325	-18.179
64488.404	-26.524	-28.908	-22.948	-21.756	-8.643	-3.278	-8.047	7.153
64488.412	-32.783	-35.763	-22.352	-31.590	-11.027	-11.921	-11.325	-17.285
64488.420	-33.975	-39.637	-21.160	-37.253	-8.047	-16.391	-20.564	-7.749
64488.428	-31.590	-32.187	-17.285	-34.571	-6.258	-15.199	-21.458	0.596
64488.436	-30.696	-32.783	-8.941	-27.120	-7.451	-13.709	-17.881	-15.199
64488.444	-22.054	-25.332	-8.047	-18.179	-2.384	-3.874	-7.153	0.298
64488.452	-33.677	-32.783	-12.219	-30.100	-3.576	-13.709	-15.795	-21.160
64488.460	-28.014	-28.908	-11.623	-26.822	-1.192	-11.325	-16.689	-5.364
64488.468	-28.014	-28.014	-14.305	-31.292	-0.596	-12.815	-16.689	0.596
64488.476	-25.630	-25.332	-9.239	-26.524	14.007	-6.258	-8.345	-13.709
64488.484	-23.842	-22.352	-7.153	-26.226	18.179	-3.278	-8.941	7.451
64488.492	-37.253	-33.379	-8.345	-39.339	14.007	-14.603	-15.199	-20.862
64488.501	-27.716	-20.564	-6.258	-32.187	21.160	-11.325	-10.431	-10.431
64488.509	-28.014	-22.054	-9.239	-36.061	26.524	-12.517	-8.941	-10.729
64488.517	-29.802	-29.802	-7.153	-38.445	32.485	-11.623	-9.239	-21.160
64488.525	-22.352	-22.054	-10.431	-35.465	37.551	-5.364	-9.537	8.643
64488.533	-39.637	-34.273	-20.564	-51.260	22.650	-20.266	-20.862	-20.862
64488.541	-30.696	-27.716	-2.980	-45.300	29.206	-13.113	-16.093	-11.921
64488.549	-22.054	-18.775	5.066	-38.743	36.955	-8.643	-9.239	-8.643
64488.557	-29.206	-27.716	2.384	-50.962	35.167	-22.054	-18.179	-30.398
64488.565	-21.160	-22.054	-2.384	-43.511	39.339	-14.305	-14.901	-5.662
64488.573	-30.696	-30.994	-1.192	-42.021	33.379	-16.689	-19.073	-25.630
64488.581	-19.073	-17.881	-0.894	-31.888	33.975	-7.153	-9.537	-12.219
64488.589	-26.822	-20.862	-7.749	-35.167	25.928	-11.027	-14.305	-5.364
64488.597	-27.418	-21.756	-0.596	-37.849	28.312	-15.199	-16.689	-19.372
64488.605	-34.273	-27.418	-18.179	-38.743	24.438	-16.689	-23.842	-5.066
64488.613	-47.088	-36.955	-20.564	-45.002	21.458	-24.438	-27.418	-33.081
64488.621	-39.935	-32.783	-12.815	-47.386	19.670	-17.583	-20.266	-15.795
64488.629	-32.783	-30.696	-2.384	-47.982	20.564	-16.391	-19.073	-4.768
64488.637	-33.677	-28.908	2.980	-42.617	20.564	-18.775	-21.756	-25.928
64488.645	-30.100	-22.352	-2.086	-34.869	18.775	-14.305	-20.564	-0.894
64488.653	-32.485	-28.610	1.490	-42.319	20.564	-18.179	-23.544	-20.862
64488.661	-28.014	-25.928	1.192	-41.425	22.948	-11.027	-19.968	-5.960
64488.669	-29.206	-28.312	0.596	-42.915	22.054	-9.835	-14.901	-8.941
64488.677	-34.273	-33.379	-3.278	-40.531	16.093	-14.305	-17.881	-27.120
64488.685	-36.061	-34.273	-13.411	-43.809	6.258	-17.285	-23.246	-8.643
64488.693	-44.703	-41.723	-18.477	-51.558	1.490	-21.458	-25.034	-28.610
64488.701	-37.849	-35.465	-20.266	-43.809	5.066	-13.411	-15.795	-17.583
64488.709	-39.339	-33.677	-20.266	-41.425	3.576	-17.583	-19.968	-11.027
64488.717	-39.339	-34.571	-7.749	-42.319	5.662	-19.372	-20.266	-19.968
64488.725	-33.975	-33.081	-7.749	-42.915	7.153	-14.305	-18.179	2.980
64488.733	-38.743	-39.041	-6.855	-44.107	6.855	-18.477	-19.670	-24.438
64488.741	-31.292	-25.034	-4.470	-30.696	10.431	-11.921	-15.199	-12.219
64488.749	-37.253	-31.292	-15.497	-35.763	0.894	-14.007	-19.968	-1.192
64488.757	-45.002	-38.743	-19.372	-44.703	0.298	-22.948	-25.034	-22.352
64488.765	-40.531	-32.485	-16.391	-45.002	3.576	-20.564	-25.332	-3.874
64488.773	-38.445	-31.888	-9.239	-42.319	6.855	-18.179	-20.564	-26.524
64488.781	-31.888	-25.034	-8.643	-32.783	9.537	-10.133	-15.497	-11.623
64488.789	-42.617	-31.888	-16.093	-43.511	2.980	-14.901	-19.372	-7.451
64488.797	-42.617	-35.763	-22.650	-45.598	3.874	-18.179	-21.458	-23.544
64488.805	-28.610	-28.014	-8.941	-39.935	11.921	-7.749	-11.921	-5.662
64488.813	-37.551	-34.571	-3.874	-46.194	10.133	-13.709	-16.093	-23.544
64488.821	-25.034	-19.073	6.855	-33.975	16.987	-5.066	-11.623	-7.153
64488.829	-21.160	-20.266	10.431	-28.312	22.352	-3.874	-9.537	-5.364
64488.837	-26.524	-24.736	3.576	-31.292	17.583	-14.007	-18.477	-24.438
64488.845	-21.160	-16.689	-3.576	-29.802	16.391	-8.047	-17.583	0.298
64488.853	-29.802	-26.524	-1.788	-39.041	7.749	-16.093	-22.352	-20.862
64488.861	-20.862	-20.862	1.490	-33.975	16.689	-10.133	-11.921	-13.113
64488.869	-29.206	-23.544	-2.980	-34.571	12.815	-11.623	-14.901	-6.258
64488.877	-38.147	-39.041	-6.258	-47.684	1.192	-22.054	-22.948	-26.226
64488.885	-33.975	-33.379	-12.219	-41.723	-5.066	-16.391	-19.372	-6.258
64488.893	-31.888	-31.590	-5.662	-39.041	-1.490	-15.199	-14.901	-25.630
64488.901	-24.438	-25.928	-0.298	-31.292	5.960	-10.133	-11.623	-7.153
64488.909	-30.994	-25.034	-3.278	-32.783	3.576	-12.815	-14.901	-5.960
64488.917	-38.147	-32.485	-13.709	-36.061	-1.490	-19.670	-22.054	-29.206
64488.925	-28.014	-28.014	-10.431	-29.504	4.172	-15.795	-16.987	-7.451
64488.933	-34.571	-32.187	-3.576	-34.571	0.298	-18.477	-17.583	-25.034
64488.941	-26.524	-22.352	-3.278	-31.590	3.278	-14.603	-15.795	-6.557
64488.950	-30.696	-25.630	-8.941	-35.763	-3.874	-17.285	-17.285	-4.768
64488.958	-31.590	-32.485	-6.855	-39.339	-5.364	-18.775	-18.775	-22.948
64488.966	-20.564	-19.372	0.894	-21.160	6.855	-2.980	-6.557	-3.874
64488.974	-22.352	-20.266	5.662	-19.372	5.066	-8.345	-6.557	-19.670
64488.982	-15.497	-16.093	-1.788	-15.497	0.000	-8.047	-4.172	-9.239
64488.990	-23.544	-22.948	-7.153	-26.524	-6.855	-16.987	-14.901	-8.345
64488.998	-21.458	-19.073	5.662	-21.458	2.682	-17.285	-15.497	-26.524
64489.006	-16.391	-8.345	6.557	-9.239	6.855	-10.729	-13.113	-5.364
64489.014	-16.093	-11.623	11.027	-11.027	6.258	-14.603	-16.391	-23.544
64489.022	0.000	6.855	22.054	6.258	13.411	-3.278	-7.153	-6.557
64489.030	21.756	30.100	41.425	26.524	20.862	-2.682	-8.047	0.298
64489.038	54.538	62.883	82.254	51.558	41.723	-2.384	-10.133	-11.027
64489.046	98.348	113.845	120.699	85.533	67.949	0.894	-5.662	11.027
64489.054	135.899	154.376	164.211	118.911	93.579	-4.768	-4.768	-11.623
64489.062	173.151	189.543	198.483	148.714	111.461	0.894	-1.788	6.557
64489.070	188.053	209.808	210.404	158.250	116.825	-1.490	-7.451	14.007
64489.078	202.656	220.835	231.564	177.026	131.130	1.490	-3.874	0.298
64489.086	219.047	240.207	248.849	195.503	143.349	14.603	9.239	21.756
64489.094	209.212	229.180	245.273	187.457	134.408	7.451	2.980	6.855
64489.102	208.914	227.988	233.054	182.688	133.812	3.576	0.298	10.431
64489.110	182.688	202.060	218.451	156.760	111.759	-10.133	-15.199	3.874
64489.118	168.383	186.265	213.385	146.627	102.520	-7.451	-14.603	-14.007
64489.126	154.376	170.171	189.245	131.726	94.175	-1.788	-8.643	8.047
64489.134	128.150	141.561	168.085	106.692	81.956	-8.345	-11.027	-11.027
64489.142	125.170	136.197	150.502	104.606	73.612	1.490	-3.874	4.470
64489.150	98.646	112.057	115.335	83.148	48.876	-3.278	-7.153	2.384
64489.158	87.917	101.626	120.103	75.102	46.492	-0.298	-3.874	-14.007
64489.166	84.639	95.069	114.739	64.671	51.856	2.384	-7.153	8.941
64489.176	65.565	77.188	100.434	51.856	41.127	-2.384	-10.729	-14.007
64489.184	72.122	79.870	100.434	59.307	44.405	7.451	2.980	0.596
64489.192	61.691	69.141	90.599	48.578	37.849	6.855	6.855	2.980
64489.200	39.339	51.260	77.188	31.590	25.928	-2.980	-4.172	-14.901
64489.208	40.531	49.770	58.711	30.696	21.160	5.662	-1.788	10.133
64489.216	26.822	30.994	53.644	17.583	4.172	-4.470	-11.325	-13.113
64489.224	26.226	25.630	51.856	15.199	7.749	-0.298	-7.451	-7.153
64489.232	16.093	21.160	44.107	5.662	4.172	0.000	-7.153	0.000
64489.240	13.709	20.266	41.723	10.729	3.874	5.066	-3.874	-12.219
64489.248	21.160	25.928	41.723	21.458	0.596	8.941	0.298	5.662
64489.256	3.874	11.921	29.802	8.047	-16.391	-7.451	-9.537	-15.497
64489.264	2.682	9.239	24.438	4.470	-14.603	-2.980	-5.364	0.298
64489.272	-0.894	2.980	22.352	0.596	-15.795	-4.768	-4.172	1.192
64489.280	-0.596	-3.576	27.120	0.596	-14.901	-1.192	-0.894	-15.497
64489.288	5.662	11.027	28.610	8.941	-13.411	8.345	3.576	11.027
64489.296	-10.431	0.894	17.583	-1.490	-23.246	-1.490	-4.172	-11.623
64489.304	-11.623	-4.172	13.411	-4.172	-24.438	1.192	-5.364	-2.086
64489.312	-15.795	-7.451	11.027	-5.960	-25.630	5.066	-1.788	4.470
64489.320	-20.564	-19.372	6.258	-16.391	-27.716	-1.490	-8.345	-14.603
64489.328	-19.073	-14.603	-5.364	-16.093	-25.630	0.000	-9.239	5.960
64489.336	-29.504	-23.246	-2.384	-21.160	-24.736	-4.768	-13.113	-12.815
64489.344	-16.391	-16.093	8.643	-18.179	-7.749	1.490	-5.364	-3.278
64489.352	-24.438	-18.477	3.278	-27.418	-9.835	-0.298	-8.345	-5.066
64489.360	-28.312	-22.352	0.894	-27.418	-7.451	-8.047	-12.517	-20.266
64489.368	-14.901	-8.643	4.470	-16.987	5.662	2.086	-1.192	2.086
64489.376	-30.696	-22.948	-1.192	-35.763	2.086	-4.470	-7.153	-19.073
64489.384	-26.822	-18.775	-6.557	-33.677	5.662	-0.298	-6.855	-2.980
64489.392	-31.888	-22.352	-5.960	-39.041	7.153	-7.153	-11.921	-4.470
64489.390	-34.273	-26.226	-0.298	-40.829	15.497	-10.133	-11.623	-19.968
64489.398	-29.802	-18.477	-5.066	-36.061	20.266	-3.576	-4.768	4.768
64489.406	-35.465	-27.418	-4.768	-43.213	19.372	-8.047	-5.960	-16.987
64489.414	-27.120	-22.948	-4.470	-38.147	26.226	-2.980	-6.258	-3.874
64489.422	-33.081	-27.418	-5.662	-42.617	22.352	-10.133	-11.027	-4.172
64489.430	-37.849	-30.994	-4.470	-39.339	14.007	-10.729	-9.537	-25.034
64489.438	-27.716	-14.603	-2.682	-26.524	19.670	0.000	0.000	6.855
64489.446	-36.359	-31.590	-6.855	-38.147	16.391	-6.557	-5.066	-3.874
64489.454	-39.935	-37.551	-13.113	-43.213	10.133	-8.941	-11.921	-5.066
64489.462	-39.637	-28.908	-7.749	-39.041	11.921	-1.192	-4.470	-4.470
64489.470	-41.723	-30.994	-10.431	-36.061	10.431	-2.384	-2.384	-14.901
64489.478	-39.041	-28.014	-18.775	-33.081	5.066	0.894	-0.894	9.239
64489.486	-43.511	-39.637	-14.007	-44.107	2.384	-5.662	-5.960	-5.662
64489.494	-33.379	-26.822	-11.325	-31.292	11.623	3.278	2.384	2.384
64489.502	-33.677	-21.160	-12.517	-25.332	10.431	8.941	7.451	8.643
64489.510	-31.888	-22.948	-10.729	-29.206	5.960	4.768	5.364	-1.788
64489.518	-22.948	-16.093	-8.047	-25.332	8.643	5.662	4.768	17.583
64489.526	-32.485	-25.928	-9.537	-32.187	5.960	-0.894	0.000	-10.133
64489.534	-25.928	-16.689	-0.894	-19.670	10.729	7.451	6.258	0.894
64489.542	-32.485	-20.266	-6.557	-23.842	1.788	1.788	-0.298	8.643
64489.550	-35.465	-25.630	-9.835	-28.610	-1.788	0.298	-1.788	-10.133
64489.558	-32.783	-24.736	-17.881	-26.822	-6.258	3.576	-1.490	3.278
64489.566	-35.167	-23.246	-11.623	-23.246	-5.960	6.258	4.470	-12.815
64489.574	-27.120	-16.391	-6.258	-11.325	2.384	13.411	11.623	-2.384
64489.582	-31.292	-20.862	-12.815	-16.987	-1.490	11.325	9.835	0.596
64489.590	-32.187	-23.246	-14.007	-21.756	-5.066	8.643	5.960	-11.325
64489.598	-28.312	-21.458	-13.411	-23.544	-6.258	13.411	8.047	4.470
64489.606	-37.849	-28.014	-10.729	-26.822	-8.643	5.960	2.682	-8.345
64489.614	-28.014	-14.603	0.596	-14.901	2.384	12.219	8.345	0.298
64489.622	-21.458	-14.901	2.682	-14.305	7.749	11.623	9.835	1.192
64489.630	-28.908	-22.948	-5.662	-19.670	-2.384	1.788	0.298	-22.352
64489.638	-25.034	-12.517	-10.133	-12.815	-2.384	1.490	1.192	-2.384
64489.646	-36.061	-25.332	-17.881	-24.736	-6.258	-10.133	-7.153	-17.285
64489.654	-26.524	-14.007	-15.199	-15.199	3.874	-1.788	-1.490	-5.662
64489.662	-30.100	-18.179	-13.113	-20.266	-2.086	-8.345	-8.047	1.490
64489.670	-30.696	-25.034	-3.278	-19.968	1.490	-9.239	-9.239	-9.537
64489.678	-26.226	-17.881	-7.451	-16.689	5.066	-2.086	-3.874	3.874
64489.686	-35.763	-22.054	-7.153	-21.756	0.000	-3.576	-3.278	-15.199
64489.694	-23.544	-14.901	-1.788	-13.709	5.066	0.596	1.192	-2.384
64489.702	-25.630	-16.391	-5.364	-19.968	0.596	1.490	-0.894	4.470
64489.710	-24.140	-12.517	0.298	-16.093	2.682	6.258	3.278	-1.490
64489.718	-16.391	-7.749	0.894	-13.113	2.384	11.027	10.431	14.901
64489.726	-25.928	-17.583	-2.682	-22.948	2.384	1.490	3.874	-8.047
64489.734	-24.736	-19.372	-5.960	-21.756	0.298	-2.086	-5.364	-1.490
64489.742	-26.524	-19.073	-4.172	-20.266	-6.557	-5.662	-9.835	3.874
64489.750	-23.842	-15.497	-0.596	-16.987	-5.364	-4.470	-5.960	-7.451
64489.758	-16.093	-6.258	-2.980	-9.239	-3.576	2.980	-0.596	10.431
64489.766	-18.179	-15.199	5.662	-17.285	-3.278	-4.470	-7.451	-9.239
64489.774	-7.451	-10.431	17.285	-4.470	2.980	1.490	-0.298	-2.384
64489.782	-7.153	-1.192	17.583	-3.874	3.576	3.278	5.066	2.086
64489.790	-5.662	1.192	21.160	0.894	4.470	8.643	11.027	-8.345
64489.798	-5.662	2.384	10.431	-2.682	-2.980	5.066	3.278	5.662
64489.806	-11.027	-4.470	10.729	-6.258	-9.537	-2.980	-0.596	-10.431
64489.814	-3.576	4.172	19.968	1.192	-3.576	0.000	-1.490	-0.596
64489.822	-6.855	-0.596	18.477	-5.066	-4.172	7.451	3.874	2.980
64489.830	-11.325	-9.239	19.372	-9.835	-7.451	6.557	2.384	-7.153
64489.840	-5.364	-5.960	15.497	-8.643	-7.749	4.768	1.490	11.325
64489.848	-10.431	-8.941	12.815	-10.729	-7.451	2.384	3.576	-7.153
64489.856	-7.451	0.298	16.093	-1.490	-8.047	3.874	0.000	3.278
64489.864	-7.153	-4.172	16.391	-7.153	-10.133	-0.298	-4.172	3.576
64489.872	-9.537	-11.325	11.921	-8.941	-10.729	0.298	-3.874	-14.007
64489.880	-6.557	-7.451	9.239	-5.364	-11.325	4.470	0.596	3.278
64489.888	-5.960	-2.980	25.928	-3.576	-7.451	0.596	0.596	-8.345
64489.896	-5.662	-0.596	24.438	-1.788	-10.431	1.490	-3.874	1.490
64489.904	-10.431	-5.960	13.411	-10.431	-16.689	-11.027	-14.305	-2.682
64489.912	-6.855	-11.325	17.881	-13.709	-10.431	-15.497	-13.411	-21.756
64489.920	-3.278	-6.258	17.881	-7.749	-10.729	-11.027	-11.027	-2.384
64489.928	-12.815	-14.007	16.987	-17.583	-17.881	-16.093	-16.093	-15.199
64489.936	-7.749	-5.960	17.285	-11.325	-19.372	-8.941	-12.517	-4.470
64489.944	-7.153	-2.384	17.881	-6.557	-20.266	-3.278	-7.153	-3.874
64489.952	-12.815	-12.219	24.438	-14.901	-19.372	-13.411	-14.007	-29.802
64489.960	-9.537	-5.662	25.034	-5.662	-21.160	-8.643	-12.517	-8.643
64489.968	-13.113	-7.749	24.140	-6.557	-19.968	-8.941	-13.709	-24.438
64489.976	-7.153	-5.364	20.564	-5.662	-20.564	-10.133	-16.391	-20.564
64489.984	-14.901	-14.305	13.411	-14.901	-21.160	-12.517	-15.497	-22.948
64489.992	-17.285	-15.497	18.179	-14.603	-23.544	-16.987	-20.862	-37.849
64490.000	-5.364	-2.980	19.968	-3.278	-22.352	-5.662	-13.411	-10.431
64490.008	-20.266	-14.603	11.623	-16.391	-33.975	-16.987	-20.564	-35.763
64490.016	-14.901	-11.623	11.027	-14.603	-29.802	-15.199	-16.391	-29.802
64490.024	-8.941	-6.557	19.372	-7.749	-30.696	-19.670	-21.160	-20.564
64490.032	-0.596	2.682	31.590	4.172	-21.160	-23.842	-24.140	-37.253
64490.040	5.364	14.603	34.869	12.815	-10.729	-17.583	-17.285	-22.650
64490.048	-3.278	3.874	35.465	0.894	-21.756	-23.544	-23.842	-38.147
64490.056	-3.278	-0.596	30.696	-6.557	-28.312	-25.034	-28.908	-25.928
64490.065	-2.384	2.086	28.312	-8.047	-25.630	-23.544	-27.120	-19.968
64490.073	-2.980	2.682	32.187	-3.874	-24.438	-19.968	-22.352	-43.213
64490.081	3.576	7.749	35.465	6.258	-20.862	-11.921	-16.093	-19.968
64490.089	0.298	6.557	45.896	7.749	-10.133	-7.451	-11.325	-28.312
64490.097	5.960	10.729	41.127	8.047	-8.643	-13.709	-19.372	-27.716
64490.105	0.298	6.855	31.292	3.278	-14.603	-23.246	-26.524	-32.485
64490.113	1.192	7.749	36.359	6.258	-17.583	-22.650	-21.756	-38.743
64490.121	-1.788	2.980	27.120	-1.192	-20.862	-13.113	-14.305	-18.179
64490.129	-0.596	-1.192	40.531	-7.749	-3.874	-20.862	-19.372	-35.465
64490.137	22.650	23.842	64.671	12.815	18.775	-20.266	-19.073	-28.610
64490.145	41.127	38.147	76.592	31.292	32.485	-19.670	-13.411	-23.246
64490.153	44.107	44.703	80.466	31.292	39.339	-18.477	-14.305	-37.849
64490.161	49.472	55.432	77.784	36.061	48.280	-11.623	-8.345	-17.285
64490.169	35.167	32.187	68.843	11.623	40.829	-19.968	-12.517	-37.253
64490.177	49.472	47.684	76.294	24.140	56.028	-11.325	-0.298	-25.332
64490.185	35.167	40.829	74.208	14.007	57.817	-16.987	-11.325	-24.438
64490.193	15.497	25.332	61.393	2.384	46.492	-19.670	-14.007	-35.465
64490.201	25.928	33.975	64.373	4.172	51.558	-8.643	-4.172	-12.219
64490.209	30.100	36.955	73.314	3.874	59.307	-18.477	-9.537	-34.571
64490.217	29.206	34.571	67.651	8.345	61.095	-23.842	-18.477	-28.908
64490.225	17.881	16.689	49.472	-3.576	44.703	-20.266	-17.285	-20.564
64490.233	7.451	0.596	43.511	-17.881	41.127	-27.120	-22.352	-39.637
64490.241	5.364	7.153	23.246	-17.285	28.014	-26.226	-25.630	-17.881
64490.249	-17.583	4.768	21.160	-28.312	14.305	-38.445	-35.167	-39.041
64490.257	3.874	18.179	49.770	-16.987	42.021	-27.120	-24.438	-29.206
64490.265	13.113	18.775	51.260	-17.583	42.021	-25.034	-21.160	-25.332
64490.273	-3.874	11.921	24.736	-11.921	24.736	-25.034	-24.140	-32.783
64490.281	-8.643	0.298	47.982	-7.153	42.021	-21.458	-20.564	-14.603
64490.289	16.987	30.994	58.711	-0.894	40.829	-27.418	-20.862	-37.551
64490.297	6.258	14.305	59.903	-16.987	45.002	-30.100	-23.246	-40.531
64490.305	14.603	23.842	48.578	-10.133	54.538	-26.226	-18.179	-31.590
64490.313	-1.490	10.729	26.226	-14.305	33.975	-29.504	-19.670	-41.723
64490.321	-2.086	16.689	36.955	-10.133	41.425	-18.179	-16.391	-7.153
64490.329	-1.192	15.497	21.160	-6.557	45.300	-12.219	-8.941	-14.603
64490.337	-8.047	16.987	16.391	-24.438	31.888	-24.736	-23.544	-19.968
64490.345	-33.379	7.451	-2.086	-28.312	26.524	-27.418	-23.246	-13.709
64490.353	-45.896	-4.172	-16.093	-30.994	27.716	-30.398	-22.650	-24.438
64490.361	23.246	17.285	33.975	-10.729	38.743	-30.398	-24.438	-8.047
64490.369	7.749	-8.643	29.802	-29.206	35.763	-31.888	-23.842	-24.438
64490.377	-13.709	-13.709	-3.874	-35.167	29.206	-28.014	-19.968	-10.729
64490.385	-10.133	-2.384	-19.670	-31.590	22.650	-28.908	-22.054	-4.470
64490.393	-18.179	1.490	-25.630	-35.465	-0.596	-22.948	-16.093	-11.325
64490.401	11.325	23.842	-0.894	-31.888	43.213	-36.955	-31.590	-8.643
64490.409	21.458	24.736	9.835	-39.339	68.247	-45.598	-38.743	-28.610
64490.417	39.935	19.670	34.869	-43.809	78.976	-40.233	-34.869	-12.815
64490.425	42.319	19.372	39.339	-44.703	98.348	-27.716	-23.246	-5.662
64490.433	52.452	40.829	15.497	-35.465	99.540	-14.007	-12.219	-13.709
64490.441	35.167	32.485	8.643	-51.558	91.791	-31.292	-28.908	-11.921
64490.449	80.466	54.836	15.795	-50.664	101.626	-35.465	-31.590	-33.677
64490.457	63.479	61.393	11.921	-41.723	94.771	-28.312	-27.418	-29.802
64490.465	36.359	32.485	-23.842	-57.518	71.824	-26.822	-23.842	-22.054
64490.473	66.459	36.359	-19.073	-59.903	53.048	-28.908	-26.524	-42.319
64490.481	61.989	31.590	-24.140	-67.353	61.393	-30.100	-30.100	-31.888
64490.489	53.942	12.517	-51.260	-79.274	50.068	-28.908	-28.312	-53.346
64490.497	72.718	32.783	-30.696	-63.181	53.048	-19.670	-21.160	-40.531
64490.505	59.605	16.689	-65.863	-77.784	29.206	-17.285	-19.073	-45.300
64490.523	77.188	33.081	-52.750	-72.122	33.379	-18.775	-19.968	-54.836
64490.531	92.685	34.869	-34.869	-67.353	53.644	-11.623	-15.199	-32.783
64490.539	56.922	3.576	-61.989	-92.685	27.716	-34.273	-36.359	-66.161
64490.547	64.671	11.325	-73.016	-90.897	11.325	-32.783	-37.253	-53.346
64490.555	54.538	1.192	-91.493	-88.215	2.980	-31.590	-35.167	-55.730
64490.563	78.976	19.372	-59.605	-82.254	35.167	-30.398	-30.696	-80.466
64490.571	96.858	33.379	-57.220	-73.612	19.968	-26.226	-28.312	-59.605
64490.579	64.671	13.709	-81.360	-94.771	-8.047	-41.127	-42.915	-89.407
64490.587	100.136	28.908	-73.612	-86.129	18.179	-31.292	-36.955	-68.247
64490.595	97.156	23.246	-88.513	-85.533	13.709	-28.312	-30.100	-63.181
64490.603	87.917	7.153	-79.870	-87.023	4.768	-25.630	-27.418	-81.360
64490.611	102.222	31.590	-83.148	-82.254	-5.960	-25.630	-35.465	-63.181
64490.619	101.924	32.485	-81.658	-87.023	5.662	-25.630	-28.908	-81.062
64490.627	98.646	25.332	-81.062	-84.937	4.768	-18.477	-21.756	-72.122
64490.635	87.917	30.994	-88.215	-96.560	-4.768	-17.285	-21.458	-65.863
64490.643	102.818	26.524	-67.949	-85.831	1.490	-16.093	-21.160	-87.619
64490.651	126.064	51.856	-87.321	-78.380	-7.153	-11.325	-19.372	-75.102
64490.659	98.646	17.583	-93.877	-98.646	-15.497	-26.226	-31.292	-112.653
64490.667	114.739	26.524	-71.526	-89.407	-8.047	-20.266	-25.332	-101.328
64490.675	121.593	49.770	-76.294	-75.996	0.894	-17.583	-23.842	-100.732
64490.683	120.103	49.472	-78.976	-75.102	-0.894	-8.643	-16.689	-104.606
64490.691	126.362	45.598	-67.949	-78.678	-11.027	-7.749	-15.795	-94.473
64490.699	134.110	50.366	-60.499	-75.102	-13.411	-18.775	-23.246	-120.699
64490.707	144.541	59.307	-80.168	-73.910	-30.696	-8.941	-20.266	-103.116
64490.715	148.714	79.870	-55.730	-59.605	-5.960	-8.345	-18.775	-96.858
64490.723	163.019	80.466	-27.716	-54.836	16.987	-17.583	-23.246	-122.488
64490.731	132.918	70.035	-56.028	-68.545	-17.881	-20.266	-30.994	-104.308
64490.739	148.416	64.075	-46.790	-73.314	-24.140	-25.630	-33.379	-122.488
64490.740	177.622	86.725	-38.445	-61.691	-0.596	-15.497	-27.716	-105.500
64490.748	158.548	71.526	-62.287	-70.930	-21.756	-19.372	-35.763	-112.653
64490.756	138.879	58.413	-46.194	-78.380	-26.524	-24.438	-38.147	-128.150
64490.764	123.382	40.531	-67.949	-80.168	-36.657	-21.160	-37.253	-103.116
64490.772	139.475	56.028	-75.996	-85.533	-36.359	-27.120	-36.657	-123.680
64490.780	146.627	71.228	-58.413	-77.486	-22.650	-23.246	-35.465	-117.421
64490.788	127.852	53.942	-54.836	-84.043	-28.312	-15.199	-29.206	-110.865
64490.796	108.182	55.730	-82.254	-98.050	-52.154	-24.438	-37.253	-129.342
64490.804	128.448	44.405	-81.658	-96.560	-53.346	-22.352	-38.147	-105.500
64490.812	111.759	19.372	-72.718	-108.778	-45.300	-31.292	-40.531	-124.872
64490.820	113.845	26.524	-87.619	-102.222	-58.413	-30.100	-39.041	-116.229
64490.828	109.375	34.869	-90.897	-107.884	-70.035	-36.359	-49.472	-118.613
64490.836	122.488	61.989	-68.247	-98.050	-53.644	-27.418	-40.531	-132.024
64490.844	127.852	55.134	-78.082	-89.705	-64.373	-17.881	-29.206	-106.096
64490.852	96.858	32.485	-69.737	-103.414	-61.691	-32.485	-40.829	-133.216
64490.860	108.182	46.492	-73.910	-96.262	-58.115	-29.802	-38.147	-120.997
64490.868	106.096	40.531	-83.148	-100.136	-70.632	-28.908	-38.147	-112.653
64490.876	107.288	26.226	-86.427	-112.653	-76.294	-25.034	-31.590	-127.554
64490.884	113.547	49.472	-64.373	-92.685	-58.711	-24.140	-30.994	-110.567
64490.892	102.818	49.174	-62.883	-95.665	-55.432	-35.465	-40.829	-133.514
64490.900	104.308	48.876	-70.632	-104.606	-49.770	-30.696	-36.061	-115.931
64490.908	104.308	42.617	-88.215	-117.123	-53.942	-27.716	-31.292	-112.057
64490.916	101.030	27.418	-80.466	-122.190	-55.730	-29.206	-33.975	-125.766
64490.924	104.308	47.386	-57.220	-101.924	-40.531	-25.034	-33.975	-101.328
64490.932	102.520	45.598	-58.413	-105.798	-33.975	-30.696	-36.955	-120.997
64490.940	111.163	30.994	-65.565	-110.865	-33.081	-19.372	-24.438	-106.692
64490.948	98.944	30.398	-64.373	-125.170	-42.915	-28.014	-32.485	-106.990
64490.956	98.050	45.896	-67.353	-120.401	-32.187	-30.100	-33.975	-108.778
64490.964	91.791	45.598	-59.009	-120.401	-17.285	-31.590	-37.253	-96.262
64490.972	95.367	42.319	-55.134	-119.507	-24.438	-34.273	-37.253	-123.084
64490.980	98.050	44.107	-56.624	-107.288	-25.630	-19.670	-22.948	-102.818
64490.988	84.341	37.849	-70.333	-118.613	-33.081	-25.928	-28.908	-96.560
64490.996	108.778	45.598	-43.809	-114.739	-24.438	-34.571	-38.147	-116.825
64491.004	103.116	46.492	-59.307	-120.997	-30.696	-28.014	-34.273	-98.944
64491.012	83.447	32.783	-66.459	-131.130	-32.783	-30.994	-34.273	-119.805
64491.020	97.454	51.558	-56.922	-113.845	-26.822	-27.716	-28.312	-106.990
64491.028	91.195	47.982	-53.644	-111.461	-27.716	-24.736	-30.100	-99.540
64491.036	78.976	22.948	-52.154	-125.766	-40.531	-32.187	-39.041	-117.719
64491.044	91.791	40.531	-46.790	-119.507	-34.571	-22.352	-29.802	-94.771
64491.052	74.506	30.994	-47.684	-131.130	-43.511	-31.590	-36.359	-110.865
64491.060	75.996	35.763	-47.684	-138.581	-49.174	-29.504	-33.975	-98.050
64491.068	69.141	32.783	-55.134	-136.197	-58.711	-31.292	-35.465	-93.877
64491.076	72.122	33.677	-55.432	-126.362	-62.287	-34.273	-36.061	-101.626
64491.084	75.996	31.590	-50.068	-132.024	-54.836	-33.677	-36.061	-83.745
64491.092	63.479	13.113	-47.088	-143.349	-63.777	-36.955	-38.445	-105.202
64491.100	73.910	44.703	-43.511	-137.091	-59.307	-31.888	-34.869	-95.963
64491.108	64.373	42.617	-42.319	-124.872	-60.797	-31.590	-33.081	-95.665
64491.116	52.452	30.398	-47.684	-121.295	-75.102	-35.465	-34.571	-114.441
64491.124	58.413	25.630	-49.472	-129.342	-89.705	-37.849	-37.253	-96.262
64491.132	48.578	11.325	-46.194	-134.408	-92.983	-39.637	-36.657	-116.527
64491.140	60.499	21.756	-27.418	-132.918	-80.764	-28.014	-29.802	-96.560
64491.148	66.459	44.107	-25.332	-120.699	-73.016	-19.968	-22.054	-87.023
64491.156	53.048	28.610	-31.292	-126.362	-84.043	-30.100	-32.485	-110.865
64491.164	41.127	32.187	-25.332	-128.448	-86.129	-33.677	-36.359	-95.665
64491.172	50.962	37.551	-19.968	-128.448	-83.447	-34.273	-33.975	-104.308
64491.180	49.174	23.544	-26.822	-127.852	-85.831	-25.332	-26.524	-86.725
64491.189	53.644	38.445	-33.081	-128.448	-74.804	-37.849	-34.869	-89.705
64491.197	68.545	53.942	-8.643	-117.421	-68.545	-42.617	-36.657	-101.626
64491.205	59.605	49.770	-10.431	-111.163	-70.333	-29.802	-31.590	-79.274
64491.213	53.048	32.783	-10.133	-118.911	-71.228	-35.763	-33.975	-94.175
64491.221	56.326	26.822	-21.458	-126.362	-78.082	-40.531	-36.657	-87.917
64491.229	45.598	37.849	-15.795	-129.044	-73.016	-42.915	-37.551	-87.321
64491.237	47.982	40.233	0.298	-121.593	-68.545	-38.147	-31.292	-101.328
64491.245	46.492	38.445	-14.305	-130.832	-77.486	-42.021	-41.127	-84.341
64491.253	33.975	28.312	-17.285	-130.236	-73.910	-51.856	-46.194	-103.414
64491.261	47.982	40.829	-0.298	-114.143	-59.605	-40.233	-36.359	-87.023
64491.269	51.558	41.723	5.662	-115.037	-65.863	-41.425	-39.935	-83.745
64491.277	72.122	58.413	23.842	-100.136	-55.432	-42.915	-41.127	-92.089
64491.285	92.387	79.870	42.915	-77.486	-41.723	-41.723	-40.829	-73.314
64491.293	126.064	132.024	85.533	-40.531	-19.670	-44.703	-39.637	-93.877
64491.301	177.622	181.496	131.726	-5.662	3.278	-35.167	-31.292	-72.718
64491.309	181.496	195.801	156.760	-0.298	6.557	-43.213	-39.637	-78.976
64491.317	205.040	212.491	159.442	28.312	27.120	-40.829	-35.763	-89.705
64491.325	231.564	227.988	192.821	48.578	50.962	-22.054	-16.987	-61.989
64491.333	171.661	188.649	150.502	19.372	11.623	-39.339	-31.590	-95.963
64491.341	145.733	157.058	126.958	-10.431	-13.411	-46.790	-42.617	-87.619
64491.349	143.051	137.091	108.778	-28.610	-23.544	-51.558	-45.300	-84.341
64491.357	113.547	114.143	68.843	-42.915	-42.021	-58.115	-50.962	-102.520
64491.365	97.156	104.904	55.134	-51.558	-44.405	-48.280	-42.915	-80.764
64491.373	88.215	92.983	47.386	-58.711	-50.962	-50.664	-43.213	-96.858
64491.381	81.360	87.917	42.021	-60.797	-63.181	-46.790	-42.915	-83.148
64491.389	60.201	75.996	16.093	-63.479	-70.035	-46.194	-42.319	-81.658
64491.397	55.730	62.883	13.709	-65.565	-70.930	-40.233	-34.869	-88.513
64491.405	71.526	74.804	31.590	-64.075	-77.784	-34.869	-30.100	-66.161
64491.414	63.777	67.651	31.590	-64.373	-69.439	-44.107	-36.657	-91.493
64491.422	58.413	50.366	8.345	-67.353	-77.188	-39.339	-35.465	-70.930
64491.430	31.292	35.465	-11.027	-92.387	-87.619	-48.280	-39.935	-81.658
64491.438	31.292	42.617	-17.583	-93.877	-91.493	-52.154	-41.425	-96.560
64491.446	37.849	51.856	-19.670	-88.811	-96.262	-43.511	-36.061	-71.526
64491.454	22.352	40.233	-5.960	-81.062	-103.712	-51.856	-44.107	-95.367
64491.462	26.524	36.061	-8.345	-79.274	-87.321	-51.856	-45.300	-83.148
64491.470	11.921	23.842	-29.504	-90.301	-103.414	-52.452	-46.492	-79.870
64491.478	12.517	7.451	-26.524	-100.434	-106.692	-59.903	-50.962	-101.626
64491.486	10.133	23.246	-24.140	-98.944	-95.367	-59.307	-51.856	-79.870
64491.494	-3.874	11.027	-32.783	-104.904	-113.249	-69.439	-59.903	-99.838
64491.502	0.894	15.795	-34.273	-102.222	-109.673	-69.141	-60.797	-87.619
64491.510	3.874	16.093	-37.253	-100.136	-109.971	-65.565	-56.028	-78.976
64491.518	3.874	14.007	-38.743	-94.473	-109.971	-57.518	-47.684	-91.195
64491.526	2.384	22.054	-42.617	-96.560	-109.673	-50.366	-43.809	-59.903
64491.534	-15.497	14.901	-41.127	-102.818	-111.461	-61.691	-50.962	-82.850
64491.542	-12.815	15.497	-40.531	-99.838	-116.527	-61.989	-54.538	-78.678
64491.550	-15.795	11.027	-38.147	-98.944	-120.103	-66.459	-58.413	-83.148
64491.558	-27.716	-3.576	-51.856	-110.567	-116.229	-77.188	-67.651	-100.434
64491.566	-20.564	-5.960	-49.472	-115.633	-105.500	-75.996	-67.949	-78.976
64491.574	-34.571	-23.246	-47.386	-136.197	-108.182	-82.552	-70.035	-105.500
64491.582	-42.021	-22.054	-64.969	-128.150	-113.845	-80.466	-68.247	-90.897
64491.590	-49.174	-19.968	-75.996	-132.322	-124.276	-76.890	-67.949	-78.678
64491.598	-50.664	-35.167	-75.400	-141.263	-138.283	-80.168	-73.016	-80.168
64491.606	-54.240	-37.551	-79.274	-144.839	-139.177	-78.380	-71.526	-65.565
64491.614	-60.201	-30.994	-66.161	-140.667	-122.786	-80.764	-68.843	-92.387
64491.622	-67.651	-25.630	-70.035	-134.706	-116.825	-73.910	-61.691	-76.890
64491.630	-63.479	-38.743	-78.976	-147.521	-122.190	-75.698	-63.181	-72.718
64491.627	-56.326	-39.935	-74.208	-154.972	-115.037	-76.592	-61.095	-87.321
64491.635	-43.511	-21.458	-59.009	-137.985	-98.944	-68.247	-56.922	-64.969
64491.643	-53.346	-29.504	-61.393	-139.773	-94.473	-73.612	-57.220	-88.215
64491.651	-53.644	-30.696	-67.651	-143.051	-82.552	-70.930	-53.644	-70.333
64491.659	-67.055	-37.849	-67.055	-153.482	-80.168	-75.400	-61.393	-73.016
64491.667	-68.545	-33.379	-66.757	-154.078	-71.228	-76.294	-61.989	-87.023
64491.675	-68.545	-43.809	-72.122	-164.807	-82.552	-81.062	-69.141	-69.439
64491.683	-80.168	-54.836	-77.486	-173.748	-87.917	-83.745	-70.035	-88.811
64491.691	-78.082	-60.499	-70.930	-176.132	-85.831	-80.466	-67.949	-75.996
64491.699	-83.745	-59.903	-77.486	-178.814	-80.466	-88.215	-73.016	-82.850
64491.707	-78.976	-50.366	-70.930	-168.383	-74.208	-86.427	-71.228	-95.367
64491.715	-78.976	-54.538	-72.718	-164.509	-74.804	-79.572	-66.161	-64.671
64491.723	-82.850	-64.969	-78.082	-171.363	-83.745	-77.486	-62.585	-87.619
64491.731	-73.314	-48.876	-68.247	-165.403	-85.533	-64.075	-48.876	-68.843
64491.739	-87.023	-42.617	-69.737	-161.529	-78.976	-69.141	-48.876	-65.565
64491.747	-76.890	-41.127	-69.439	-156.760	-81.062	-75.400	-59.009	-80.466
