Timestamp	AFz	AF3	AF4	AF7	AF8	Pz	P3	P4	2023-06-28 15:00:17.153	fs=125
606927.953	-52.750	-54.836	-65.267	-67.353	-78.380	-28.312	-31.888	-22.054
606927.961	-27.716	-32.783	-33.081	-40.531	-44.405	-16.987	-14.603	-10.431
606927.969	-45.002	-46.194	-45.002	-50.962	-40.531	1.490	-25.630	-1.192
606927.977	-24.736	-28.610	-26.822	-30.100	-30.994	-41.723	-27.418	-32.485
606927.985	-44.405	-55.432	-56.624	-66.459	-50.664	0.298	-18.179	-2.682
606927.993	-27.716	-40.531	-47.684	-49.472	-36.061	-19.372	-16.391	-14.603
606928.001	-18.179	-29.504	-34.869	-40.233	-28.908	-19.372	-8.047	-9.537
606928.009	-44.405	-50.068	-53.048	-55.134	-36.359	-6.258	-22.650	-7.451
606928.017	-13.411	-27.120	-21.756	-30.100	-19.073	-34.869	-11.623	-25.332
606928.025	-43.809	-59.307	-61.691	-66.459	-44.405	4.768	-11.921	4.172
606928.033	-35.167	-38.743	-56.028	-51.856	-47.088	-27.120	-27.120	-21.458
606928.041	-18.477	-27.120	-33.975	-34.273	-23.842	-20.564	-14.603	-9.835
606928.049	-47.088	-58.413	-54.538	-65.267	-27.418	-6.557	-28.908	-4.470
606928.057	-23.544	-37.253	-25.928	-45.896	-22.352	-42.319	-21.756	-31.292
606928.065	-40.233	-59.903	-53.644	-66.459	-33.081	13.113	-3.576	11.027
606928.073	-25.928	-41.127	-37.551	-48.280	-11.921	-10.431	-12.815	-7.153
606928.081	-14.901	-30.696	-26.524	-33.081	-3.576	-8.941	-4.470	-2.682
606928.089	-37.849	-51.558	-56.326	-56.624	-25.034	-3.576	-24.140	-6.855
606928.097	-9.239	-17.881	-30.398	-22.650	-13.709	-46.194	-25.332	-34.869
606928.105	-29.802	-45.300	-45.002	-53.048	-14.603	11.623	-10.729	9.835
606928.113	-19.968	-31.590	-31.888	-42.915	-7.153	-13.113	-16.689	-7.153
606928.121	-7.749	-20.266	-22.650	-30.696	-3.874	-4.470	-1.788	8.047
606928.129	-39.935	-53.346	-51.856	-61.095	-23.246	12.219	-12.815	16.093
606928.137	-14.901	-27.418	-27.418	-38.743	-14.305	-29.206	-11.325	-14.603
606928.145	-35.465	-54.240	-49.174	-61.393	-18.179	8.643	-13.113	8.643
606928.153	-36.359	-47.684	-50.068	-50.366	-15.497	-34.273	-35.763	-26.524
606928.161	-33.081	-45.300	-55.432	-53.942	-28.014	-29.504	-23.842	-19.073
606928.169	-48.876	-59.605	-67.055	-73.314	-35.167	-0.298	-21.160	2.682
606928.177	-16.391	-24.140	-32.485	-33.379	2.384	-14.305	-8.345	-7.153
606928.185	-30.100	-39.041	-40.531	-44.405	-6.557	-3.874	-14.305	5.364
606928.193	-42.021	-49.174	-47.386	-56.624	-25.034	-25.630	-28.610	-14.007
606928.201	-37.849	-50.664	-49.174	-55.134	-31.888	-16.689	-19.670	-10.431
606928.222	-47.684	-57.817	-61.989	-61.691	-34.869	-8.345	-19.372	-2.682
606928.230	-36.061	-42.617	-53.942	-54.240	-24.736	-14.901	-10.133	-7.153
606928.238	-50.366	-61.989	-67.055	-60.797	-35.167	-8.047	-18.775	1.788
606928.246	-43.213	-50.664	-60.201	-53.048	-38.743	-16.689	-24.140	-6.258
606928.254	-36.955	-53.346	-49.174	-68.843	-30.398	-6.855	-13.411	-2.682
606928.262	-51.856	-62.883	-64.969	-77.486	-39.637	-7.153	-21.756	-1.788
606928.270	-28.312	-28.610	-48.280	-31.292	-23.246	-3.278	-3.576	0.894
606928.278	-30.696	-33.379	-44.107	-30.398	-14.901	12.517	0.298	16.689
606928.286	-38.147	-41.425	-49.770	-41.127	-31.888	-6.855	-14.603	2.384
606928.294	-37.551	-43.511	-53.346	-49.770	-36.657	-4.470	-11.027	2.384
606928.302	-44.405	-50.068	-60.201	-58.115	-29.802	-0.894	-14.901	3.874
606928.310	-26.822	-35.465	-44.107	-48.876	-21.458	-5.066	-5.662	-1.788
606928.318	-33.081	-41.723	-50.068	-44.405	-23.842	5.364	-11.623	8.345
606928.326	-30.994	-32.187	-47.684	-36.657	-25.332	0.000	-9.239	5.364
606928.334	-22.054	-24.736	-40.233	-26.226	-25.630	12.815	7.749	17.881
606928.342	-37.253	-42.021	-51.856	-53.644	-35.763	5.662	-10.729	10.729
606928.350	-35.763	-39.339	-47.088	-52.154	-37.849	-5.960	-9.537	-3.278
606928.358	-41.723	-43.809	-55.432	-47.684	-39.041	-0.596	-17.881	3.278
606928.366	-31.888	-31.292	-43.213	-30.398	-28.908	-8.941	-16.093	4.768
606928.374	-26.226	-30.398	-41.425	-27.716	-27.716	-4.172	-11.623	4.470
606928.382	-30.696	-32.485	-46.790	-36.061	-32.485	0.596	-17.881	8.941
606928.390	-23.544	-26.226	-47.386	-35.167	-33.975	-3.576	-9.835	1.788
606928.398	-35.763	-43.213	-57.817	-46.790	-42.319	3.576	-11.921	10.431
606928.406	-31.590	-37.551	-40.233	-46.194	-43.809	-9.239	-18.477	-0.596
606928.414	-23.842	-25.928	-35.167	-34.571	-37.551	-9.537	-21.458	-1.490
606928.422	-33.081	-30.100	-43.213	-43.511	-35.465	-7.749	-26.524	1.490
606928.430	-19.968	-18.775	-32.485	-26.226	-32.783	-1.490	-7.153	4.470
606928.438	-24.438	-22.054	-44.107	-30.398	-36.955	8.047	-13.709	14.007
606928.443	-38.445	-33.379	-53.346	-42.319	-49.174	-13.709	-30.994	-4.768
606928.451	-39.935	-44.405	-62.287	-49.770	-62.585	-11.325	-22.352	0.000
606928.459	-37.849	-45.598	-60.797	-44.703	-57.817	-4.470	-25.630	3.278
606928.467	-31.590	-25.630	-40.233	-25.630	-48.578	-10.431	-21.160	-4.172
606928.475	-48.280	-42.617	-60.499	-40.829	-60.797	-6.557	-30.696	2.086
606928.483	-42.319	-40.829	-49.174	-50.962	-59.903	-16.391	-35.167	-8.643
606928.491	-27.716	-25.332	-36.955	-31.292	-36.657	2.384	-12.517	5.960
606928.499	-42.319	-39.637	-49.174	-37.551	-50.366	2.682	-21.458	8.643
606928.507	-31.590	-28.610	-38.147	-29.802	-57.518	-2.682	-11.623	2.384
606928.515	-46.194	-44.405	-55.432	-47.982	-48.578	0.596	-14.305	9.239
606928.523	-50.366	-49.472	-59.307	-55.432	-55.432	-10.431	-21.160	-3.576
606928.531	-43.809	-49.174	-56.624	-52.750	-52.154	-4.768	-18.775	1.192
606928.539	-50.366	-51.856	-58.115	-45.300	-52.154	-6.557	-28.014	0.596
606928.547	-41.723	-40.829	-43.809	-36.359	-48.578	-11.623	-16.987	-5.960
606928.555	-49.770	-49.770	-52.452	-47.386	-53.346	-2.682	-23.544	5.066
606928.563	-47.088	-48.578	-45.002	-46.194	-54.538	-8.345	-24.736	2.086
606928.571	-42.617	-46.790	-47.684	-47.684	-60.797	-0.596	-12.517	8.345
606928.579	-54.240	-47.088	-60.797	-41.425	-65.863	-5.960	-25.034	3.278
606928.587	-44.405	-35.763	-46.790	-22.054	-49.770	-14.007	-15.795	-1.490
606928.595	-49.174	-47.088	-48.578	-36.955	-48.280	-5.364	-19.968	7.451
606928.603	-52.452	-48.876	-53.644	-41.723	-53.942	-13.113	-24.736	-0.298
606928.611	-50.068	-47.982	-55.730	-38.445	-60.201	-11.027	-22.352	-2.682
606928.619	-38.743	-30.696	-39.637	-23.544	-46.790	-7.749	-25.630	1.192
606928.627	-23.246	-16.987	-23.842	-9.239	-39.935	-7.451	-9.239	1.490
606928.635	-56.326	-57.817	-56.326	-48.578	-71.824	-10.133	-26.524	-1.490
606928.643	-48.876	-45.300	-55.432	-49.472	-57.220	-14.007	-20.862	-3.874
606928.651	-38.445	-39.637	-49.770	-32.187	-51.558	-4.172	-6.855	2.086
606928.659	-62.287	-59.009	-73.314	-40.531	-84.341	-11.623	-26.822	-1.490
606928.665	-50.068	-43.511	-55.730	-30.100	-76.592	-9.835	-13.709	-1.192
606928.673	-54.836	-52.154	-56.922	-44.405	-63.479	-7.451	-21.756	0.596
606928.681	-42.021	-38.147	-39.339	-25.332	-54.538	-8.345	-14.901	1.788
606928.689	-23.246	-23.246	-22.650	-5.662	-30.696	10.133	1.788	20.266
606928.697	-37.551	-39.935	-42.021	-24.438	-37.253	0.000	-17.285	12.815
606928.705	-41.425	-46.492	-50.962	-31.888	-53.942	-16.689	-21.160	-5.662
606928.713	-52.750	-61.691	-61.095	-37.253	-67.353	-11.623	-24.438	-1.788
606928.721	-46.194	-59.009	-56.028	-32.783	-66.459	-15.795	-24.438	-6.557
606928.729	-35.167	-51.856	-47.684	-39.041	-49.770	-8.345	-18.775	-1.788
606928.737	-47.684	-65.565	-58.115	-43.213	-56.326	-12.815	-29.802	-4.172
606928.745	-33.081	-58.115	-46.492	-25.332	-46.492	-11.623	-15.497	-3.874
606928.753	-36.061	-66.757	-59.307	-34.571	-56.922	0.298	-12.219	5.066
606928.761	-34.273	-57.518	-50.068	-32.485	-42.021	-14.603	-24.438	-7.749
606928.769	-23.544	-51.558	-43.809	-19.670	-23.842	-6.258	-23.842	1.192
606928.777	-33.975	-57.518	-47.982	-28.014	-33.975	-10.729	-33.677	0.000
606928.785	-21.160	-45.598	-35.763	-8.345	-37.849	-6.557	-11.027	1.490
606928.793	-37.551	-70.632	-57.817	-41.425	-50.664	-6.258	-19.968	0.298
606928.801	-30.696	-65.267	-49.472	-39.637	-25.034	-17.285	-27.716	-12.219
606928.809	-19.073	-50.962	-41.425	-33.081	-11.623	-8.047	-18.775	-2.980
606928.817	-31.590	-59.307	-56.028	-36.955	-28.312	-10.431	-31.292	-5.066
606928.825	-16.689	-45.598	-40.233	-15.199	-14.603	-8.047	-17.285	-2.682
606928.833	-25.630	-56.326	-50.366	-24.438	-17.285	-1.490	-18.477	5.662
606928.841	-26.822	-56.624	-49.472	-28.312	-22.054	-14.305	-23.544	-8.345
606928.849	-20.862	-50.962	-46.194	-27.120	-14.603	-1.192	-10.729	1.192
606928.857	-36.359	-66.161	-50.962	-50.366	-18.477	-6.855	-26.226	-0.894
606928.865	-22.650	-53.048	-37.551	-35.763	-14.603	-11.623	-20.564	-9.835
606928.873	-32.187	-59.009	-53.644	-42.319	-22.948	-11.921	-31.292	-7.749
606928.881	-26.524	-51.558	-45.896	-32.485	-14.305	-19.968	-29.206	-13.113
606928.885	-18.477	-48.578	-43.213	-30.696	-8.941	-8.643	-17.881	-3.874
606928.893	-19.372	-46.492	-41.425	-30.994	-3.278	-2.980	-20.266	2.682
606928.901	-4.172	-29.802	-27.716	-15.497	0.298	-6.258	-10.133	-1.192
606928.909	-2.384	-25.928	-28.610	-12.815	0.894	8.047	-10.729	12.815
606928.917	-5.662	-24.140	-28.908	-14.901	-3.576	-8.047	-17.285	-2.682
606928.925	-5.364	-25.928	-26.822	-19.372	-1.192	-0.298	-3.874	1.490
606928.933	-20.564	-44.107	-41.127	-35.465	-6.855	-3.278	-16.987	1.788
606928.941	-9.835	-30.398	-36.359	-20.862	-0.596	-14.305	-19.670	-10.729
606928.949	-18.179	-39.339	-47.982	-27.716	-10.133	-8.345	-26.226	-4.470
606928.957	-22.054	-39.339	-47.982	-29.206	-16.987	-17.583	-28.312	-11.325
606928.965	-14.305	-36.061	-43.511	-25.928	-15.199	-11.027	-21.458	-7.153
606928.973	-19.372	-37.551	-48.280	-33.677	-15.199	-11.325	-28.908	-5.364
606928.981	-10.431	-22.352	-38.147	-17.285	-10.729	-7.749	-17.285	-2.682
606928.989	-21.458	-37.551	-48.578	-30.100	-17.285	-2.086	-20.564	1.788
606928.997	-14.901	-33.677	-44.107	-31.888	-11.027	-8.643	-14.901	-3.576
606929.005	-5.364	-27.716	-36.955	-28.312	-13.113	2.086	-5.960	9.835
606929.013	-31.292	-50.664	-56.028	-46.492	-40.233	-10.729	-31.888	-7.749
606929.021	-23.842	-39.935	-46.492	-34.869	-32.187	-14.603	-27.120	-13.411
606929.029	-22.948	-38.743	-50.962	-33.975	-22.054	-6.258	-26.524	-2.086
606929.037	-18.775	-29.802	-48.280	-24.736	-20.564	-15.795	-25.034	-10.133
606929.045	-11.325	-23.544	-41.425	-18.775	-17.285	-6.258	-15.497	-1.788
606929.053	-25.630	-38.147	-56.624	-35.763	-29.802	-10.431	-27.120	-7.153
606929.061	-11.623	-27.418	-42.617	-26.524	-19.968	-11.623	-12.517	-8.643
606929.069	-6.557	-23.842	-36.955	-15.795	-17.881	5.662	-11.027	8.643
606929.077	-7.451	-15.795	-38.445	-18.477	-28.014	-8.941	-19.073	-5.066
606929.085	1.192	-10.729	-36.955	-14.007	-21.458	-2.086	-7.153	0.894
606929.093	-6.855	-21.756	-33.975	-19.372	-17.583	-0.894	-16.987	5.066
606929.101	-0.894	-18.179	-26.226	-9.537	-13.411	-8.047	-13.411	-2.086
606929.121	-8.047	-23.246	-34.273	-24.736	-19.968	7.153	-11.623	9.835
606929.129	-5.066	-19.073	-30.994	-26.226	-14.901	-1.192	-12.517	5.066
606929.137	1.788	-14.901	-27.120	-15.497	-12.517	2.682	-7.451	7.451
606929.145	-13.113	-27.120	-39.637	-25.332	-22.650	-4.172	-25.332	0.000
606929.153	-6.557	-19.968	-35.167	-24.736	-23.842	-10.133	-21.458	-8.047
606929.161	-16.093	-29.504	-45.896	-32.187	-38.147	-2.384	-25.332	1.788
606929.169	-3.278	-13.113	-32.187	-13.709	-21.458	-1.490	-14.603	1.490
606929.177	0.298	-14.007	-31.888	-11.623	-15.497	4.172	-9.835	1.192
606929.185	-5.662	-18.775	-39.637	-16.987	-21.458	-2.384	-25.630	0.000
606929.193	2.086	-16.689	-25.630	-8.345	-23.544	-5.662	-15.199	-4.470
606929.201	-14.305	-34.571	-46.492	-36.359	-35.465	-4.172	-28.610	-1.192
606929.209	-7.749	-25.034	-38.743	-28.610	-29.206	-8.941	-25.332	-5.066
606929.217	2.682	-16.093	-29.504	-9.537	-25.332	3.576	-11.027	3.278
606929.225	-6.855	-23.246	-39.339	-24.438	-29.206	1.490	-23.246	2.086
606929.233	0.000	-13.113	-32.187	-15.199	-22.054	1.788	-11.921	0.298
606929.241	-11.027	-26.524	-38.743	-24.140	-28.312	6.557	-20.266	5.960
606929.249	3.576	-9.239	-27.418	-2.384	-19.073	1.788	-16.987	0.894
606929.257	11.027	-0.596	-25.928	1.490	-21.756	10.431	-7.749	8.941
606929.265	0.596	-8.941	-32.783	-11.027	-37.849	6.258	-19.073	8.941
606929.273	4.470	-14.007	-29.206	-13.411	-33.379	-1.192	-11.325	-1.490
606929.281	5.066	-15.795	-30.696	-24.736	-17.583	15.199	-5.662	13.113
606929.289	27.716	8.345	-7.451	8.643	1.192	21.458	7.153	19.372
606929.297	16.689	3.278	-17.881	11.325	-10.133	14.305	-2.384	10.729
606929.305	-2.980	-15.199	-34.571	-2.682	-26.822	4.470	-20.862	2.980
606929.313	1.788	-15.795	-34.571	-6.855	-30.696	0.000	-14.007	-4.172
606929.321	-4.172	-20.266	-40.531	-20.266	-47.088	12.815	-12.517	4.768
606929.329	12.219	0.000	-16.987	-3.278	-45.300	12.815	-2.086	8.345
606929.337	9.835	-4.768	-21.160	-0.596	-27.120	14.901	-2.086	11.623
606929.340	-2.980	-16.093	-31.888	-11.325	-26.226	8.643	-16.987	8.345
606929.348	1.788	-15.199	-31.590	-6.258	-24.736	6.258	-6.557	1.490
606929.356	-5.960	-30.696	-37.551	-28.312	-31.888	15.497	-12.219	9.835
606929.364	6.557	-5.960	-22.054	-12.517	-25.034	8.941	-13.709	5.066
606929.372	11.623	7.153	-25.630	14.901	-30.398	14.603	-4.470	7.153
606929.380	1.490	-8.345	-32.783	-1.788	-34.273	15.795	-5.364	12.219
606929.388	-7.451	-26.822	-33.379	-30.100	-43.511	0.298	-12.219	-3.278
606929.396	-19.670	-33.975	-44.107	-27.120	-54.240	7.451	-21.458	4.768
606929.404	-6.557	-14.305	-36.359	2.980	-39.637	-0.894	-21.458	-1.788
606929.412	2.384	-5.662	-28.014	16.093	-29.802	8.047	-12.219	5.364
606929.420	-5.364	-11.921	-33.081	2.384	-37.849	6.557	-15.497	6.855
606929.428	4.768	-9.537	-21.458	0.894	-42.319	9.239	-0.596	8.941
606929.436	-7.749	-21.160	-35.465	-13.411	-45.002	16.987	-6.557	13.411
606929.444	-3.278	-6.258	-28.014	-1.788	-39.935	5.662	-11.027	2.682
606929.452	-0.298	-9.835	-26.524	0.596	-41.723	3.874	-10.431	0.596
606929.460	-9.537	-24.438	-34.869	-19.073	-42.617	-1.192	-21.160	-0.894
606929.468	8.643	-4.470	-16.093	-2.384	-33.379	3.874	-4.172	3.278
606929.476	2.980	-9.537	-20.266	1.192	-31.292	11.027	-7.451	13.113
606929.484	-0.298	-10.729	-22.054	10.133	-34.869	-5.960	-20.564	-2.384
606929.492	-6.855	-18.775	-34.869	3.874	-40.233	-1.192	-16.987	-2.086
606929.500	-15.497	-31.292	-48.876	-13.113	-46.790	2.086	-21.458	3.278
606929.508	1.788	-22.352	-19.670	-2.682	-47.982	12.219	-1.788	8.345
606929.516	-0.894	-22.054	-22.054	-13.113	-45.002	18.179	-4.470	15.199
606929.524	2.086	-12.517	-27.120	5.662	-37.253	5.066	-10.431	3.576
606929.532	-3.576	-25.928	-32.187	-6.258	-45.598	3.576	-10.133	0.596
606929.540	-22.650	-52.452	-48.280	-24.140	-51.260	-2.384	-27.120	-4.768
606929.548	-8.941	-41.127	-37.551	-9.239	-39.339	-1.490	-13.113	-2.086
606929.556	-14.007	-47.684	-46.790	-13.709	-45.002	8.643	-16.391	8.941
606929.593	-5.364	-39.339	-39.935	-14.007	-36.955	3.874	-14.305	6.258
606929.601	-4.768	-42.617	-37.551	-12.219	-32.187	7.451	-11.027	7.451
606929.609	-13.709	-53.048	-38.743	-20.564	-33.081	3.278	-20.862	5.662
606929.617	4.470	-43.213	-24.736	-5.066	-29.206	7.153	-0.596	7.749
606929.625	-3.874	-53.644	-41.425	-23.246	-27.716	16.689	-4.768	17.583
606929.633	-0.298	-42.021	-34.273	-16.391	-6.557	7.749	-8.345	7.451
606929.641	7.749	-39.637	-19.073	-6.557	-5.364	11.921	-5.066	7.451
606929.649	3.576	-44.703	-22.650	-5.662	-12.815	9.537	-12.517	8.047
606929.657	3.278	-36.359	-28.610	-0.596	-19.372	2.682	-9.239	2.086
606929.665	-13.113	-51.856	-48.876	-19.968	-29.802	7.153	-19.372	5.364
606929.673	2.086	-39.637	-34.571	-11.325	-9.239	0.596	-12.219	-0.298
606929.681	8.345	-38.743	-26.524	-11.623	3.576	9.537	-2.682	5.364
606929.689	-8.345	-52.750	-48.876	-21.160	-14.007	4.172	-16.093	1.192
606929.697	-6.855	-45.896	-47.982	-8.345	-8.345	10.729	1.192	6.557
606929.705	3.278	-41.425	-27.418	-11.027	7.451	19.968	-3.576	15.795
606929.713	9.537	-34.869	-17.881	-5.662	10.431	5.662	-8.941	2.384
606929.721	20.862	-25.332	-9.835	2.980	21.756	19.372	8.345	14.901
606929.729	8.345	-36.657	-27.120	-14.901	14.305	10.431	-10.431	9.537
606929.737	4.470	-37.253	-27.120	-14.901	-1.788	-5.364	-13.411	-6.557
606929.745	-6.557	-47.982	-39.041	-27.120	-6.258	6.258	-14.305	1.192
606929.753	3.278	-38.743	-32.485	-11.325	8.345	2.980	-6.855	0.298
606929.761	11.027	-26.524	-24.140	-2.384	7.749	19.670	8.643	16.689
606929.769	1.192	-35.465	-31.888	-22.352	-0.596	14.603	-3.576	14.305
606929.777	1.788	-32.783	-30.398	-12.815	5.662	2.980	-5.364	1.192
606929.785	-10.431	-50.366	-46.194	-19.670	7.749	7.749	-15.497	4.470
606929.793	-10.133	-45.002	-43.511	-21.458	4.470	-0.298	-12.815	-1.788
606929.801	-3.278	-37.551	-34.869	-29.504	1.490	15.497	4.470	10.729
606929.809	-8.047	-39.637	-31.590	-26.822	2.086	15.795	-5.066	13.411
606929.797	-2.086	-30.398	-26.822	-13.411	-2.980	5.066	-3.576	2.682
606929.805	-10.431	-39.339	-41.723	-15.199	-4.470	8.643	-10.133	8.047
606929.813	1.192	-26.226	-28.014	2.682	7.451	6.855	-3.874	6.258
606929.821	-0.894	-29.206	-25.332	-16.689	8.345	13.113	0.596	5.364
606929.829	-13.113	-45.896	-36.657	-38.743	1.788	5.662	-15.795	2.086
606929.837	-3.278	-39.041	-28.014	-25.928	-5.960	6.258	-4.768	0.298
606929.845	-9.537	-42.021	-34.869	-25.630	-2.384	17.881	-2.682	13.411
606929.853	-1.788	-28.610	-28.610	-4.470	6.855	11.921	0.596	7.749
606929.861	-0.298	-28.908	-27.120	1.192	3.278	20.862	6.855	16.093
606929.869	-5.662	-32.187	-30.100	-8.941	2.980	20.266	-0.894	18.775
606929.877	-1.788	-28.014	-21.756	-12.517	6.557	10.133	3.874	8.047
606929.885	-8.345	-33.081	-27.418	-26.524	7.153	17.583	-2.086	14.901
606929.893	-6.855	-28.610	-28.312	-19.073	-1.788	2.980	-8.941	-0.298
606929.901	-11.325	-35.465	-31.888	-19.073	-6.557	7.153	-6.258	3.874
606929.909	-22.650	-44.703	-39.041	-24.736	-4.172	7.451	-12.219	8.047
606929.917	4.470	-18.477	-14.007	-1.490	7.153	11.325	6.258	8.643
606929.925	11.921	-12.815	0.298	2.086	7.749	14.007	-4.768	11.921
606929.933	59.903	30.696	51.260	37.849	34.869	8.345	-1.788	7.451
606929.941	121.593	86.129	118.911	85.831	67.353	23.246	13.113	21.756
606929.949	178.814	144.541	175.238	124.574	88.513	19.968	6.258	22.352
606929.957	244.975	213.683	234.842	188.649	115.037	24.736	24.140	27.120
606929.965	284.910	263.751	270.009	238.419	124.872	34.869	25.332	37.253
606929.973	316.203	305.772	286.102	266.135	118.017	30.398	28.908	33.081
606929.981	332.594	326.931	292.063	289.679	131.428	36.061	32.485	33.677
606929.989	333.786	332.296	311.434	316.501	145.733	26.226	14.603	25.928
606929.997	333.488	336.766	301.898	319.183	144.243	26.822	25.332	24.140
606930.005	297.129	301.898	251.234	288.188	115.335	35.465	21.756	32.187
606930.013	268.221	271.797	218.749	269.413	75.400	19.073	12.815	16.391
606930.003	251.532	258.386	213.385	247.657	77.784	32.485	28.014	29.206
606930.011	209.808	211.596	185.072	212.193	73.314	26.226	13.709	23.246
606930.019	192.225	179.708	181.198	175.834	75.400	16.093	11.921	12.219
606930.027	158.250	143.945	148.416	145.435	64.075	26.226	4.768	25.034
606930.035	133.514	113.845	115.037	127.852	41.723	20.862	10.431	20.862
606930.043	105.202	83.148	80.466	78.976	27.716	24.736	15.199	24.438
606930.051	66.161	54.538	48.578	58.711	5.066	9.537	-5.066	10.133
606930.059	68.843	52.750	64.075	68.545	18.477	14.007	11.325	11.325
606930.067	43.213	29.802	45.300	35.763	8.047	19.670	4.768	19.372
606930.075	36.657	26.226	44.107	39.935	-1.788	15.795	8.643	14.305
606930.083	22.650	11.623	22.650	27.120	-11.623	22.650	13.113	19.073
606930.091	-5.662	-14.305	-12.517	-5.662	-37.253	11.027	-6.557	13.113
606930.099	-8.643	-17.285	-11.921	2.682	-35.763	10.133	3.278	8.941
606930.107	-30.398	-39.637	-28.312	-11.325	-39.041	16.987	0.298	14.901
606930.115	-30.696	-31.590	-28.610	-1.788	-37.849	10.133	2.980	8.643
606930.123	-28.014	-32.783	-28.312	-2.384	-41.425	13.113	5.960	11.921
606930.131	-40.531	-47.684	-34.273	-23.544	-51.558	1.788	-8.941	3.576
606930.139	-34.273	-37.551	-29.802	-12.815	-46.790	8.345	8.643	8.047
606930.147	-52.452	-60.499	-60.201	-35.465	-63.479	4.470	-6.557	5.662
606930.155	-52.452	-55.134	-59.009	-30.398	-63.777	-7.451	-7.749	-8.941
606930.163	-48.578	-52.750	-45.896	-19.670	-61.691	2.384	4.470	0.596
606930.171	-59.903	-57.817	-55.432	-33.379	-67.353	-0.894	-9.835	-1.192
606930.179	-41.127	-41.425	-32.783	-14.901	-57.220	0.596	5.364	-3.278
606930.187	-50.366	-48.876	-44.107	-26.524	-63.181	3.576	-5.960	5.364
606930.195	-50.664	-45.896	-42.319	-22.352	-61.393	-3.576	-10.133	2.086
606930.203	-47.088	-51.260	-41.425	-33.975	-64.671	6.855	-0.894	11.027
606930.211	-49.174	-53.346	-43.213	-22.650	-71.228	8.345	-3.576	14.007
606930.219	-27.418	-27.716	-20.862	0.894	-56.028	9.537	10.431	10.431
606930.227	-40.829	-35.167	-42.021	-11.027	-61.095	11.325	-5.066	12.219
606930.235	-40.829	-34.571	-37.551	-11.027	-64.373	0.894	-8.643	2.384
606930.243	-45.002	-38.743	-41.425	-20.862	-67.949	8.345	-2.980	7.451
606930.251	-46.492	-43.809	-44.703	-29.206	-65.565	1.192	-10.431	4.172
606930.270	-29.802	-31.590	-26.524	-13.709	-59.605	5.662	8.047	6.855
606930.278	-45.300	-46.790	-47.088	-23.544	-71.526	13.411	3.874	14.007
606930.286	-38.147	-38.445	-34.571	-15.795	-65.565	7.451	2.384	13.709
606930.294	-40.829	-34.869	-33.081	-18.179	-69.737	13.709	1.788	16.391
606930.302	-42.915	-38.147	-29.206	-20.564	-71.526	5.364	-11.623	5.662
606930.310	-31.888	-32.485	-18.179	-5.066	-60.499	4.768	4.470	2.682
606930.318	-39.637	-39.041	-35.465	-9.537	-67.353	14.305	8.941	14.007
606930.326	-34.273	-20.564	-33.379	1.788	-68.843	4.172	8.643	6.557
606930.334	-31.292	-23.246	-32.783	-3.576	-69.737	11.921	13.709	13.709
606930.342	-35.465	-37.551	-33.975	-21.458	-64.373	7.451	0.000	10.133
606930.350	-22.054	-29.206	-17.881	-1.788	-48.578	3.874	6.557	5.066
606930.358	-30.696	-38.445	-28.610	-10.431	-52.154	11.027	1.788	14.305
606930.366	-37.849	-40.233	-43.511	-7.749	-70.333	-1.192	-4.768	0.000
606930.374	-35.465	-47.684	-38.147	-18.477	-69.141	8.941	3.874	7.451
606930.382	-37.849	-52.750	-36.657	-21.160	-55.134	11.325	-1.788	11.027
606930.390	-28.312	-45.002	-32.187	-10.729	-50.664	9.537	5.364	8.047
606930.398	-33.081	-53.942	-41.723	-14.305	-53.644	18.179	3.576	19.670
606930.406	-22.948	-41.723	-31.888	-7.451	-47.684	11.325	3.278	11.921
606930.414	-11.027	-33.975	-24.140	2.682	-37.253	19.073	12.219	18.477
606930.422	-12.815	-44.107	-20.862	-8.047	-25.630	26.226	14.007	23.246
606930.430	-13.709	-48.280	-21.160	-13.411	-29.504	26.822	22.948	22.650
606930.438	-24.438	-50.962	-45.300	-16.689	-40.829	25.928	7.153	22.650
606930.446	-18.477	-40.531	-33.379	0.894	-27.418	8.047	1.788	6.557
606930.454	-21.458	-45.598	-33.081	-4.768	-25.630	10.431	2.384	9.835
606930.462	-33.081	-62.585	-39.339	-24.736	-31.590	5.960	-7.749	7.153
606930.470	-15.199	-43.511	-23.246	-12.517	-14.901	11.921	11.921	8.345
606930.478	-26.822	-52.750	-36.061	-28.312	-19.372	13.113	1.490	9.537
606930.486	-25.928	-55.134	-36.061	-31.292	-20.862	-0.894	-3.874	-5.662
606930.491	-22.352	-55.432	-36.061	-26.524	-20.564	5.960	-0.596	-0.596
606930.499	-32.187	-56.326	-43.809	-22.650	-25.928	8.345	-8.047	4.470
606930.507	-22.352	-45.300	-35.465	-4.172	-17.583	11.027	3.874	3.576
606930.515	-31.590	-62.883	-43.809	-30.696	-18.775	9.835	-3.576	3.874
606930.523	-28.610	-54.538	-40.233	-26.822	-9.835	-0.894	-7.749	-5.662
606930.531	-23.544	-47.684	-41.723	-15.497	-1.490	16.987	7.153	6.557
606930.539	-20.862	-47.386	-39.637	-21.160	1.490	20.862	6.557	8.345
606930.547	-6.855	-28.312	-14.305	-5.066	5.364	18.477	15.795	6.855
606930.555	-18.179	-38.743	-27.418	-7.749	-4.172	15.795	0.894	9.537
606930.563	-10.133	-28.908	-21.458	-4.470	10.729	7.153	2.682	2.980
606930.571	-11.325	-32.783	-19.670	-19.968	17.583	21.160	12.815	14.305
606930.579	-28.908	-46.790	-33.379	-35.167	5.364	12.219	-2.682	7.749
606930.587	-19.968	-30.100	-26.226	-11.325	9.537	-1.788	-5.066	-4.768
606930.595	-30.696	-45.300	-40.233	-18.775	-5.364	0.596	-13.709	-2.086
606930.603	-30.398	-37.253	-39.339	-10.431	-6.855	0.596	-3.576	-3.576
606930.611	-22.650	-36.061	-25.928	-8.643	8.047	8.941	-0.298	4.172
606930.619	-26.226	-39.041	-28.014	-18.775	5.066	-0.596	-17.583	-1.788
606930.627	-14.603	-24.736	-27.120	-10.133	8.941	-1.192	-5.960	-5.066
606930.635	-29.504	-36.657	-32.783	-30.100	1.788	8.643	-6.855	6.258
606930.643	-20.862	-27.120	-8.345	-16.093	4.768	1.788	-1.490	0.298
606930.651	-28.014	-39.339	-23.544	-24.140	2.980	4.172	-1.490	2.682
606930.659	-32.485	-47.386	-33.081	-45.598	4.768	7.153	-3.576	8.643
606930.667	-22.054	-25.630	-22.650	-20.862	5.662	-1.490	-0.894	-2.682
606930.675	-35.763	-41.425	-35.465	-20.862	-4.768	1.192	-15.795	-3.874
606930.683	-26.822	-32.187	-23.544	-9.537	2.086	0.894	-8.047	-4.470
606930.691	-28.312	-30.696	-33.677	-18.775	4.172	11.623	2.980	5.364
606930.699	-42.021	-47.982	-56.326	-42.319	-7.153	5.364	-5.960	4.768
606930.707	-36.359	-42.319	-37.849	-41.425	-13.709	0.298	-3.278	-2.682
606930.715	-44.405	-48.876	-35.465	-33.081	-7.153	3.278	-16.391	-2.384
606930.723	-34.273	-40.233	-28.014	-28.908	7.749	0.000	-8.047	-3.576
606930.731	-28.908	-40.233	-22.650	-39.935	8.345	10.133	-0.596	7.451
606930.739	-38.743	-39.637	-35.763	-43.213	-0.894	2.682	-14.901	6.258
606930.747	-30.398	-19.670	-32.187	-11.325	-0.894	-4.470	-10.729	-2.086
606930.755	-38.147	-29.802	-40.233	-12.815	-3.576	3.874	-15.795	3.278
606930.763	-31.292	-29.802	-29.504	-16.391	-2.980	-0.298	-8.345	-4.768
606930.771	-30.100	-23.246	-28.312	-25.034	-8.941	4.172	-6.557	-1.788
606930.779	-33.677	-28.312	-32.187	-21.458	-4.768	2.682	-15.795	1.490
606930.787	-25.630	-25.630	-24.438	-12.517	-2.980	2.384	-3.874	1.490
606930.795	-37.551	-31.888	-32.783	-34.273	-6.855	10.431	-5.960	12.517
606930.803	-21.756	-9.835	-21.160	-21.756	2.086	15.497	5.960	14.901
606930.811	-19.073	-9.239	-23.544	-19.073	-0.596	21.756	10.431	16.987
606930.819	-40.531	-33.081	-33.677	-26.524	-13.709	1.490	-15.199	-2.086
606930.827	-31.292	-24.736	-26.226	-11.623	-2.682	2.980	-3.874	0.596
606930.835	-33.081	-25.034	-32.187	-15.795	-3.278	14.007	-5.364	11.325
606930.843	-33.677	-19.670	-27.418	-25.630	-10.431	10.729	-0.298	6.557
606930.851	-27.120	-6.258	-25.034	-9.537	-7.451	20.266	5.960	14.305
606930.859	-19.073	1.490	-22.352	3.874	-2.980	9.239	-4.768	7.451
606930.867	-8.941	10.133	-9.239	13.411	2.682	8.047	5.662	6.557
606930.875	-22.054	-6.557	-18.477	-3.576	-6.855	20.266	3.278	15.497
606930.883	-24.140	-15.199	-23.842	-8.047	-12.219	22.352	11.921	13.411
606930.891	-25.034	-16.689	-25.332	-19.670	-16.689	28.908	15.795	17.285
606930.899	-26.524	-7.749	-23.544	-14.305	-13.411	22.054	5.364	15.199
606930.907	-15.497	7.451	-19.372	8.643	-4.470	20.564	15.497	14.305
606930.915	-24.736	-5.960	-31.888	-1.788	-8.345	29.504	12.517	22.948
606930.923	-23.246	-7.153	-20.266	-9.537	-16.689	15.199	9.239	8.643
606930.931	-23.544	-3.874	-19.372	-13.113	-15.199	19.372	11.027	13.709
606930.950	-25.630	-6.557	-19.968	-7.153	-13.411	18.477	2.384	16.093
606930.958	-14.603	1.788	-13.709	-2.980	-10.133	19.968	16.391	15.199
606930.966	-23.544	-8.047	-23.544	-21.458	-20.862	19.372	4.768	17.285
606930.974	-25.034	-6.258	-20.862	-7.749	-17.583	2.980	-3.576	2.384
606930.982	-26.226	-8.643	-26.822	-11.027	-15.199	13.411	2.682	5.662
606930.990	-27.716	-5.960	-25.630	-19.968	-14.603	13.411	-1.192	5.960
606930.998	-23.246	-3.278	-18.477	-1.192	-16.987	9.537	6.258	6.258
606931.006	-41.425	-22.352	-35.167	-19.073	-34.273	11.921	-5.960	8.941
606931.014	-36.657	-16.987	-31.292	-21.458	-33.081	0.596	-3.278	-2.980
606931.022	-36.657	-22.650	-35.465	-23.842	-37.253	8.643	-1.192	4.470
606931.030	-39.041	-19.670	-33.975	-28.908	-33.975	8.047	-7.153	8.047
606931.038	-25.332	-3.278	-20.266	-11.325	-24.140	8.047	2.384	5.960
606931.046	-30.398	-5.066	-26.524	-2.980	-27.120	12.517	-6.855	9.537
606931.054	-26.226	0.894	-23.246	5.662	-26.226	3.576	-3.278	2.384
606931.062	-24.140	-1.788	-19.372	1.192	-23.842	13.709	5.662	8.941
606931.070	-30.100	-7.749	-25.034	-4.470	-27.418	9.239	-3.874	5.960
606931.078	-29.504	-13.709	-29.206	-6.855	-38.147	3.278	3.278	-1.490
606931.086	-36.657	-19.073	-33.379	-20.266	-43.213	16.987	0.000	10.431
606931.094	-23.842	0.894	-15.497	-4.768	-29.504	14.901	7.451	10.729
606931.102	-29.802	-5.364	-25.928	-15.199	-32.783	16.391	3.576	12.219
606931.110	-36.359	-8.643	-33.677	-8.047	-39.339	8.941	-9.239	3.278
606931.118	-18.477	8.643	-15.199	22.948	-31.292	16.391	11.623	5.066
606931.126	-31.888	-9.537	-22.948	-2.384	-33.975	16.391	1.490	8.345
606931.134	-24.438	-1.192	-13.709	-0.596	-28.908	2.384	-1.192	-0.298
606931.142	-25.034	2.384	-16.689	9.537	-32.783	8.643	0.596	6.855
606931.150	-37.551	-8.047	-31.590	-7.749	-38.743	8.643	-5.066	7.153
606931.158	-22.650	0.298	-12.517	-5.066	-22.650	16.689	14.007	10.729
606931.166	-25.928	0.298	-12.219	1.192	-23.246	22.054	3.576	17.583
606931.171	-27.418	3.576	-14.901	8.941	-28.908	8.047	-1.788	4.470
606931.179	-34.571	-10.431	-23.544	-6.855	-43.511	14.901	0.298	7.451
606931.187	-44.107	-28.908	-37.849	-20.266	-43.809	8.941	-6.557	4.172
606931.195	-24.736	-4.470	-19.968	5.364	-29.206	14.901	10.431	10.133
606931.203	-35.167	-19.073	-29.206	-8.047	-42.319	16.987	-2.086	12.219
606931.211	-31.292	-18.775	-23.842	-10.133	-40.233	5.662	-5.364	0.596
606931.219	-30.696	-23.544	-26.822	-20.862	-47.386	12.815	-2.980	5.364
606931.227	-37.551	-31.292	-37.849	-19.372	-42.915	4.768	-14.305	-0.596
606931.235	-16.391	-16.391	-18.775	5.066	-17.881	17.285	10.133	8.345
606931.243	-26.822	-31.888	-33.379	-11.921	-26.822	27.418	4.768	18.477
606931.251	-22.352	-25.034	-33.081	-16.093	-30.696	14.901	0.596	5.364
606931.259	-14.901	-25.034	-21.756	-5.364	-19.372	23.246	10.133	14.007
606931.267	-30.100	-36.657	-25.928	-5.662	-25.332	12.219	-7.749	5.662
606931.275	-22.650	-35.167	-26.226	-11.027	-22.054	7.451	-6.258	-2.384
606931.283	-26.524	-44.405	-36.061	-30.696	-14.007	21.756	-5.960	11.623
606931.291	-16.093	-30.100	-24.736	-23.246	-8.047	18.179	4.768	8.941
606931.299	-13.709	-30.696	-29.504	-12.815	-11.921	25.928	12.517	13.709
606931.307	-22.650	-36.061	-36.359	-12.815	-9.537	16.987	-1.788	8.345
606931.315	-10.133	-19.670	-19.073	-2.086	2.086	16.093	5.364	6.855
606931.323	-19.073	-30.994	-31.292	-12.219	-0.596	26.524	2.980	13.411
606931.331	-11.921	-26.822	-22.352	-5.662	1.490	18.179	4.172	5.066
606931.339	-9.537	-27.716	-20.564	-11.325	-1.192	21.458	4.470	9.537
606931.347	-17.881	-31.888	-31.292	-22.650	-4.172	13.411	-4.470	6.855
606931.355	-4.470	-18.775	-20.266	-11.027	1.490	14.007	8.941	6.557
606931.363	-12.517	-27.716	-28.908	-19.670	0.000	16.391	0.894	8.345
606931.371	2.086	-8.047	-9.835	7.153	11.921	14.007	11.325	6.258
606931.379	-2.682	-17.285	-15.497	-4.768	9.537	21.160	10.729	13.411
606931.387	-12.219	-24.438	-27.120	-17.881	8.643	13.411	-6.557	7.749
606931.391	0.298	-11.921	-17.881	-5.960	21.458	7.451	-1.192	1.788
606931.399	-6.258	-17.881	-20.564	-13.113	19.372	15.795	-5.066	7.153
606931.407	7.153	-1.490	-2.980	0.298	24.736	8.643	3.278	0.000
606931.415	13.709	4.768	2.980	2.682	30.696	17.285	11.325	9.537
606931.423	11.027	5.960	-1.192	1.788	25.034	7.451	-4.470	2.086
606931.431	35.465	32.187	21.756	29.504	36.657	6.557	5.662	4.470
606931.439	20.564	16.093	10.431	14.007	26.822	5.960	-14.901	3.576
606931.447	54.836	50.664	48.578	44.703	49.174	-3.874	-11.921	-6.258
606931.455	84.937	75.102	76.294	56.624	63.181	9.239	-1.490	2.682
606931.463	98.944	84.341	94.771	62.585	70.930	7.749	-7.451	2.980
606931.471	142.455	126.660	141.561	99.838	90.003	12.517	14.007	11.027
606931.479	158.548	142.455	158.250	109.076	90.003	27.120	2.980	22.054
606931.487	200.868	188.351	200.272	150.204	109.375	4.172	-8.345	1.192
606931.495	240.505	227.988	234.842	180.304	122.488	22.054	7.451	16.689
606931.503	263.751	260.472	259.280	205.934	125.766	23.544	1.788	15.199
606931.511	307.858	312.328	302.196	253.022	150.204	20.564	18.775	11.027
606931.519	312.030	315.607	300.109	252.128	158.250	37.551	12.517	26.226
606931.527	340.343	350.475	327.826	282.526	171.959	23.544	20.266	20.862
606931.535	339.150	354.946	314.414	284.314	155.568	40.233	36.061	36.955
606931.543	326.037	334.382	307.262	262.558	141.561	27.418	12.815	23.544
606931.551	357.032	371.933	346.005	288.486	160.635	12.815	21.756	10.133
606931.559	331.700	351.965	311.434	279.546	142.753	40.233	22.352	27.716
606931.567	330.806	350.773	312.626	283.718	146.031	11.325	20.564	8.643
606931.575	311.732	331.104	265.837	264.347	130.534	36.955	37.253	32.783
606931.583	257.492	286.996	211.298	216.663	85.533	26.822	18.477	18.477
606931.591	267.029	285.208	244.379	222.623	116.527	14.305	32.187	14.901
606931.599	234.246	247.061	211.895	184.774	98.646	45.896	31.292	41.127
606931.607	205.338	211.000	179.708	158.548	68.247	0.894	12.517	-0.596
606931.613	175.536	182.688	165.999	136.495	65.863	0.894	-1.490	-1.788
606931.621	141.263	152.886	136.495	123.084	68.247	0.298	-10.431	-5.364
606931.629	142.753	150.502	147.820	121.295	70.035	-12.219	5.960	-8.941
606931.637	96.262	102.222	92.387	69.141	34.571	22.352	8.643	18.775
606931.645	89.109	89.407	77.784	60.797	17.285	-12.815	2.980	-5.960
606931.653	59.903	59.903	54.240	27.716	16.093	-5.662	4.768	1.788
606931.661	21.756	29.206	25.332	6.855	7.451	-11.623	-10.729	-3.576
606931.669	20.862	26.524	14.603	19.670	-9.239	-35.465	-11.921	-20.862
606931.677	2.980	7.153	-7.749	-10.729	-34.571	7.749	1.490	11.027
606931.685	8.047	16.391	4.768	14.603	-18.775	-9.835	9.537	-0.298
606931.693	-21.160	-15.497	-22.650	-13.709	-19.968	1.192	9.835	11.027
606931.701	-53.346	-44.405	-58.413	-43.213	-32.485	-3.874	-7.451	7.451
606931.709	-47.386	-37.551	-48.280	-36.359	-44.107	-22.650	0.894	-3.278
606931.717	-86.725	-73.016	-79.870	-78.082	-74.804	-2.682	-7.153	8.941
606931.725	-84.341	-65.863	-66.161	-65.565	-69.439	-35.167	-11.325	-17.583
606931.733	-84.639	-76.294	-71.228	-63.777	-59.009	-18.477	-5.364	-2.384
606931.741	-94.771	-81.062	-82.850	-59.307	-63.777	-16.689	-16.987	-2.980
606931.749	-69.737	-47.386	-56.922	-31.292	-56.624	-22.054	3.874	-2.980
606931.757	-92.685	-76.890	-84.341	-62.287	-65.863	6.855	5.364	18.477
606931.765	-83.148	-66.459	-73.910	-52.154	-57.817	-21.756	2.980	-3.278
606931.773	-88.513	-70.035	-78.380	-56.326	-56.326	-3.576	10.133	16.093
606931.781	-107.586	-87.619	-95.367	-72.420	-66.757	-10.133	-6.557	8.941
606931.789	-91.195	-73.910	-77.486	-58.413	-62.883	-29.206	-0.894	-8.345
606931.797	-112.355	-98.050	-101.030	-85.235	-75.400	3.874	1.490	17.583
606931.805	-101.328	-77.486	-87.917	-71.228	-70.632	-27.418	-3.874	-4.172
606931.813	-99.838	-75.400	-87.917	-66.757	-69.439	-11.921	2.980	11.027
606931.821	-106.990	-84.639	-95.963	-67.055	-73.910	-12.219	-8.047	9.239
606931.829	-85.235	-61.989	-76.890	-46.194	-61.393	-24.736	3.576	-0.596
606931.833	-105.500	-81.658	-98.348	-70.930	-70.632	1.490	-0.894	17.285
606931.841	-95.367	-69.737	-76.890	-57.817	-71.228	-34.869	-11.921	-10.133
606931.849	-94.473	-72.718	-81.658	-63.181	-74.506	-18.179	0.894	9.239
606931.857	-106.692	-80.466	-95.963	-68.843	-78.082	-12.517	-7.451	10.133
606931.865	-83.148	-56.624	-75.102	-44.405	-64.969	-36.657	-2.086	-6.557
606931.873	-97.454	-71.526	-84.937	-68.843	-71.824	-2.682	0.000	20.564
606931.881	-80.168	-52.750	-66.161	-45.002	-65.863	-30.696	0.000	0.596
606931.889	-85.831	-59.605	-82.850	-40.531	-80.168	-13.411	8.047	15.795
606931.897	-90.301	-60.201	-89.109	-45.598	-80.466	-5.662	0.894	16.987
606931.905	-56.624	-20.564	-50.068	-13.113	-55.432	-26.226	5.960	0.596
606931.913	-65.863	-30.696	-53.048	-25.630	-62.883	4.768	6.258	28.610
606931.921	-45.002	-11.325	-31.292	-8.941	-44.703	-27.418	1.788	5.960
606931.929	-42.617	-17.583	-36.955	-19.073	-46.492	-7.451	9.537	18.775
606931.937	-64.075	-39.637	-54.836	-51.558	-56.326	-7.153	-3.874	16.689
606931.945	-49.770	-21.756	-36.657	-21.160	-53.346	-36.955	-5.066	-4.172
606931.953	-64.969	-24.438	-76.592	-17.285	-69.439	-5.066	-8.047	16.093
606931.961	-33.975	8.047	-45.002	14.305	-51.558	-30.100	-4.470	0.298
606931.969	-28.312	3.576	-14.901	5.066	-47.088	-12.815	9.537	17.285
606931.977	-51.558	-22.650	-32.783	-30.994	-69.141	-11.921	-3.874	13.709
606931.985	-36.657	-5.662	-25.630	-29.206	-72.718	-16.689	9.835	8.047
606931.993	-43.213	-8.345	-37.253	-28.610	-65.565	-9.239	0.000	14.603
606932.001	-29.504	3.278	-20.862	-0.596	-40.531	-16.093	7.153	7.451
606932.009	-31.888	0.596	-39.935	11.325	-47.982	-11.325	5.364	10.729
606932.017	-40.829	-13.709	-42.915	-0.298	-46.492	-22.948	-11.325	3.576
606932.025	-28.908	-10.729	-19.968	-4.768	-43.511	-21.160	5.066	1.788
606932.033	-33.975	-21.160	-36.657	-23.842	-49.770	-9.537	1.490	14.007
606932.041	-21.458	-3.576	-19.073	-9.239	-41.127	-12.517	7.749	10.729
606932.049	-25.928	-12.517	-24.140	-24.438	-33.975	-11.027	5.662	8.643
606932.070	-34.273	-26.822	-30.696	-18.775	-38.445	-17.583	-2.682	6.557
606932.078	-28.312	-20.862	-30.696	0.894	-44.703	-21.756	5.364	1.192
606932.086	-36.657	-35.465	-43.809	-32.187	-51.260	-20.266	-5.662	5.066
606932.094	-28.908	-22.054	-32.187	-19.372	-49.174	-24.438	-2.384	0.596
606932.102	-32.187	-19.372	-37.551	-21.458	-45.598	-16.689	-2.682	5.662
606932.110	-33.677	-28.908	-42.319	-26.226	-27.418	-18.775	-7.153	5.066
606932.118	-24.736	-14.007	-28.908	-17.583	-24.438	-14.603	7.153	6.557
606932.126	-40.233	-32.187	-41.723	-35.465	-38.743	-16.093	-7.153	8.345
606932.134	-36.657	-37.551	-29.802	-36.061	-25.928	-23.842	-3.576	0.000
606932.142	-33.081	-29.802	-28.610	-25.332	-36.657	-8.941	7.451	11.325
606932.150	-35.167	-26.226	-37.551	-23.544	-24.736	-8.643	2.980	11.325
606932.158	-33.975	-28.312	-37.253	-31.590	-12.517	-13.113	7.749	5.066
606932.166	-47.982	-40.531	-50.962	-37.849	-15.497	-11.027	0.894	10.729
606932.174	-43.511	-30.100	-44.107	-17.583	-14.305	-19.968	1.490	4.470
606932.182	-34.273	-26.822	-38.147	-15.199	-2.384	-2.384	14.007	20.564
606932.190	-43.809	-41.127	-38.743	-47.088	-7.451	-10.133	3.278	14.007
606932.198	-32.187	-28.610	-32.187	-38.147	-16.987	-11.623	10.431	8.941
606932.206	-48.578	-36.061	-49.472	-34.571	-15.199	-16.093	-7.153	5.960
606932.214	-44.107	-27.120	-38.147	-19.670	-1.192	-27.120	-5.960	-3.874
606932.222	-38.743	-29.802	-32.485	-24.438	0.000	-14.901	3.278	8.047
606932.230	-41.425	-31.590	-35.465	-38.743	-1.788	-22.352	-6.557	3.576
606932.238	-39.339	-31.292	-35.763	-39.637	-2.682	-25.034	-1.788	-1.788
606932.246	-52.750	-41.127	-51.856	-44.107	-11.623	-19.073	-10.431	2.980
606932.254	-46.194	-30.696	-42.021	-39.637	-9.835	-18.775	-1.788	-0.894
606932.262	-41.723	-25.332	-36.955	-37.253	-4.768	-3.874	12.517	11.325
606932.270	-42.617	-23.842	-37.551	-30.994	-8.941	-5.364	8.047	13.411
606932.278	-24.438	-4.768	-25.332	-2.980	2.682	-0.894	23.544	18.179
606932.286	-51.558	-39.637	-50.664	-38.147	-11.921	-11.921	-1.788	7.749
606932.291	-50.962	-38.147	-46.790	-52.452	-8.643	-22.352	-3.576	-4.470
606932.299	-51.856	-35.465	-49.174	-61.095	-13.411	-22.054	-8.345	-1.192
606932.307	-48.280	-25.332	-47.982	-48.578	-9.835	-21.756	-8.345	1.490
606932.315	-28.312	-5.662	-30.994	-9.537	4.470	-11.325	12.219	5.364
606932.323	-37.253	-15.795	-37.253	-14.007	-5.066	-5.662	5.662	12.219
606932.331	-30.100	-13.709	-24.736	-19.968	-9.537	-6.557	10.729	9.835
606932.339	-31.590	-18.775	-28.014	-36.657	0.000	0.596	13.709	16.689
606932.347	-34.273	-7.749	-30.696	-24.736	10.133	-8.047	2.682	11.325
606932.355	-33.379	-2.980	-30.994	-7.153	-1.490	-17.285	0.894	-0.298
606932.363	-42.021	-14.007	-38.147	-20.862	-8.047	-16.391	-8.345	3.576
606932.371	-31.590	-11.027	-25.928	-31.292	0.298	-19.968	-1.192	0.298
606932.379	-33.677	-19.073	-30.398	-26.226	1.788	-9.835	4.172	5.364
606932.387	-37.849	-11.921	-34.869	-22.054	-4.172	-11.623	-0.894	5.364
606932.395	-20.862	6.557	-20.862	-5.960	7.153	-7.451	14.007	6.855
606932.403	-34.273	-9.537	-30.994	-30.994	1.192	-7.153	2.980	5.960
606932.411	-28.908	-8.345	-25.332	-39.935	5.066	-15.497	6.855	-0.298
606932.419	-27.716	-8.345	-27.716	-35.763	3.874	-8.941	8.047	8.047
606932.427	-24.736	10.431	-21.458	-2.682	2.682	-14.901	-0.298	5.662
606932.435	-17.285	14.305	-15.199	13.113	6.258	-14.007	10.431	3.874
606932.443	-30.398	-8.643	-33.975	-20.564	-2.980	-8.047	2.384	10.133
606932.451	-21.756	-1.788	-20.266	-18.179	3.278	-16.391	6.258	2.980
606932.459	-14.305	13.113	-6.855	-6.557	13.709	-7.451	8.047	6.855
606932.467	-26.226	7.451	-15.795	-5.364	10.431	-11.921	-2.980	3.278
606932.475	-23.544	9.835	-20.564	-7.451	5.662	-12.219	10.729	4.172
606932.483	-39.339	-7.749	-36.955	-30.994	-8.643	-13.411	0.000	5.662
606932.491	-33.379	-0.298	-26.226	-25.332	-8.941	-14.007	5.960	0.894
606932.499	-33.975	-2.682	-29.504	-31.590	-13.113	-5.364	8.047	7.749
606932.507	-39.935	-9.835	-33.677	-28.610	-16.093	-16.987	-4.768	2.384
606932.510	-27.418	-1.192	-22.054	-18.775	-4.768	-18.477	7.749	0.000
606932.518	-42.915	-7.749	-33.081	-26.524	-14.007	-15.497	-2.086	3.576
606932.526	-35.167	0.298	-27.716	-16.987	-5.960	-24.736	-2.384	-8.047
606932.534	-24.438	6.557	-23.246	-15.497	5.066	-9.537	5.960	5.960
606932.542	-36.359	0.894	-34.869	-30.994	-9.835	-13.113	-1.490	7.153
606932.550	-28.312	6.557	-33.975	-13.709	-10.133	-13.411	10.133	6.557
606932.558	-37.849	-8.941	-28.312	-27.716	-6.855	-11.921	1.192	9.835
606932.566	-41.127	-11.623	-24.438	-33.677	-13.113	-23.842	-1.192	-5.960
606932.574	-44.405	-12.219	-34.869	-33.677	-16.689	-12.219	1.788	2.980
606932.582	-50.068	-10.431	-44.405	-37.551	-25.034	-12.815	-3.874	3.278
606932.590	-33.081	4.470	-28.312	-12.219	-11.921	-5.662	14.305	8.643
606932.598	-36.657	-2.682	-32.187	-23.246	-9.835	-1.490	8.047	14.305
606932.606	-41.723	-8.345	-35.763	-28.610	-24.438	-20.564	-2.384	-4.172
606932.614	-46.194	-11.623	-40.531	-28.908	-26.524	-14.007	-1.788	1.192
606932.622	-53.346	-16.987	-45.598	-37.253	-22.650	-20.862	-7.451	-5.364
606932.630	-35.167	-7.451	-26.822	-25.332	-10.133	-14.901	8.345	-3.576
606932.638	-50.366	-15.795	-41.127	-36.061	-21.756	-16.093	-9.835	-0.596
606932.646	-47.088	-3.874	-38.445	-23.246	-26.226	-28.312	-10.729	-7.749
606932.654	-47.386	-7.451	-38.445	-28.610	-30.994	-15.199	-2.384	5.066
606932.662	-46.790	-8.345	-39.339	-26.226	-23.246	-14.901	-3.278	4.470
606932.670	-34.571	2.086	-27.716	-13.113	-21.458	-15.795	3.874	0.000
606932.678	-44.107	-11.623	-31.590	-27.716	-22.352	-14.901	-6.258	3.576
606932.686	-39.637	-5.662	-28.908	-22.650	-14.901	-27.418	-2.980	-8.643
606932.694	-43.809	-8.941	-37.849	-25.332	-27.716	-18.775	-2.086	-3.278
606932.702	-47.088	-5.662	-34.571	-29.802	-22.948	-22.054	-11.623	-2.384
606932.710	-28.908	13.411	-15.497	-1.788	-7.153	-17.285	3.874	2.682
606932.718	-36.061	-1.192	-25.630	-15.795	-11.027	-10.729	-0.298	7.749
606932.726	-33.081	-2.682	-26.822	-14.305	-14.901	-22.352	1.192	-2.086
606932.728	-31.590	2.384	-30.100	-14.901	-19.073	-8.345	6.258	9.239
606932.736	-42.617	1.192	-31.888	-19.073	-24.736	-14.305	-7.451	3.278
606932.744	-31.590	2.980	-17.881	-9.835	-13.709	-15.497	1.490	-1.490
606932.752	-42.617	-6.855	-30.100	-20.266	-20.862	-22.352	-12.815	-3.278
606932.760	-45.598	-7.749	-36.657	-25.928	-32.187	-32.187	-9.835	-14.603
606932.768	-57.220	-30.398	-48.280	-47.088	-43.213	-25.034	-9.239	-7.749
606932.776	-47.088	-17.881	-35.763	-28.014	-29.206	-35.167	-25.630	-9.537
606932.784	-28.908	-2.384	-19.670	2.384	-11.623	-34.273	-19.670	-13.113
606932.792	-31.292	-15.199	-24.140	-14.007	-9.537	-20.564	-16.689	-2.682
606932.800	-22.352	-11.623	-17.583	-21.458	-2.384	-18.179	-0.894	-1.490
606932.808	-29.206	-16.689	-25.630	-23.246	-10.133	-15.199	-1.490	-1.788
606932.816	-34.869	-14.305	-29.802	-22.352	-14.007	-23.544	-15.199	-8.941
606932.824	-25.928	-13.411	-18.477	-16.987	-10.133	-18.179	-3.874	-7.749
606932.832	-38.743	-33.379	-34.869	-35.763	-9.537	-17.583	-13.709	-0.596
606932.840	-32.783	-25.928	-30.398	-34.869	-0.894	-20.266	-3.576	-3.576
606932.848	-30.994	-24.438	-28.610	-44.405	-3.576	-14.305	-2.086	-0.596
606932.856	-39.935	-33.677	-35.167	-52.154	-10.729	-23.246	-15.497	-9.835
606932.864	-28.610	-21.160	-25.928	-15.795	1.192	-15.795	-2.384	-4.470
606932.872	-39.637	-33.975	-43.213	-24.736	-0.298	-14.305	-10.729	0.000
606932.880	-34.571	-27.120	-30.696	-28.312	7.451	-25.034	-10.729	-13.411
606932.888	-35.465	-29.802	-35.167	-33.081	6.855	-20.266	-9.835	-9.239
606932.896	-40.233	-34.273	-42.021	-36.359	4.470	-18.775	-12.815	-7.749
606932.904	-33.081	-22.650	-33.677	-29.802	7.749	-14.603	-1.788	-5.066
606932.912	-41.723	-35.763	-33.677	-30.994	9.835	-12.219	-14.305	-1.192
606932.920	-35.167	-33.081	-27.418	-39.041	16.689	-20.862	-12.219	-11.027
606932.928	-34.869	-33.081	-37.849	-53.346	13.411	-9.835	-5.662	-0.298
606932.936	-37.253	-26.226	-37.253	-31.590	19.372	-14.007	-13.113	0.298
606932.944	-28.014	-17.285	-22.650	-19.670	29.206	-12.219	-3.278	-2.086
606932.947	-37.551	-31.292	-36.955	-46.492	32.485	-5.364	-8.345	2.384
606932.955	-22.352	-21.160	-26.226	-29.802	42.915	-3.576	9.537	4.470
606932.963	-12.815	-8.345	-11.027	-9.239	48.578	10.729	15.795	16.093
606932.971	-21.160	-16.689	-18.179	-13.411	45.300	-5.662	0.298	3.278
606932.979	-16.689	-15.795	-15.199	-25.332	41.425	-2.384	8.345	2.384
606932.987	-32.187	-24.438	-31.888	-45.896	31.888	-5.364	-7.153	2.980
606932.995	-24.140	-16.689	-24.438	-27.418	41.723	-14.305	-4.768	-7.451
606933.003	-24.736	-19.073	-25.332	-21.458	41.127	-7.451	-1.788	1.490
606933.011	-29.504	-22.650	-29.206	-23.544	41.127	-17.881	-11.325	-5.364
606933.019	-12.517	-5.960	-14.305	-25.928	61.393	-8.345	4.172	-0.298
606933.027	-39.339	-25.630	-33.379	-53.346	41.127	-15.795	-18.477	-3.576
606933.035	-33.975	-18.775	-30.398	-26.524	34.273	-24.140	-17.285	-12.517
606933.043	-31.590	-20.266	-36.359	-30.398	35.465	-10.133	-6.258	-2.384
606933.051	-31.292	-14.603	-33.677	-26.226	37.253	-6.557	-2.086	3.278
606933.059	-19.073	-3.874	-19.968	-11.027	41.723	0.298	11.325	7.153
606933.067	-33.081	-22.650	-39.935	-41.723	37.253	-8.643	-8.047	1.192
606933.075	-28.312	-22.054	-25.332	-40.233	42.617	-18.179	-6.855	-6.557
606933.083	-26.524	-9.537	-24.140	-20.564	38.743	-14.007	-8.345	-1.788
606933.091	-32.485	-11.027	-26.226	-14.901	32.783	-19.968	-13.411	-6.557
606933.099	-26.524	-14.901	-20.862	-25.928	32.187	-18.775	-0.298	-10.133
606933.107	-35.167	-25.034	-37.849	-60.797	27.716	-26.524	-17.285	-14.007
606933.115	-25.034	-4.470	-25.332	-15.497	35.763	-24.736	-12.219	-15.795
606933.123	-26.822	-2.980	-19.968	5.662	37.551	-14.901	-9.835	-8.345
606933.131	-33.379	-8.941	-25.928	-7.749	35.465	-22.352	-16.689	-10.729
606933.139	-20.266	-6.258	-23.842	-18.179	40.829	-13.709	2.384	-4.470
606933.147	-28.014	-3.874	-27.716	-30.994	37.551	-13.709	-8.345	-3.576
606933.155	-23.544	7.153	-14.603	-4.172	38.445	-20.564	-6.855	-13.411
606933.163	-33.379	-3.576	-26.822	-7.749	29.504	-18.477	-11.027	-7.749
606933.180	-37.253	-11.027	-29.802	-23.544	28.014	-27.120	-19.670	-13.709
606933.188	-16.391	4.172	-14.603	-16.391	35.465	-14.007	3.278	-5.960
606933.196	-23.544	4.172	-26.524	-14.901	32.783	-15.795	-6.855	-5.066
606933.204	-17.583	14.007	-8.643	0.596	42.021	-11.623	5.066	-4.768
606933.212	-25.332	5.960	-14.007	-11.325	41.127	0.000	5.066	7.153
606933.220	-34.273	-8.345	-21.458	-21.756	28.908	-11.921	-10.431	-2.682
606933.228	-18.775	1.788	-6.855	-12.517	33.379	-9.537	2.086	-2.682
606933.236	-23.544	7.153	-17.285	-30.994	35.167	-8.047	-3.874	2.682
606933.244	-15.199	18.179	-8.345	-2.682	35.763	-10.133	0.894	-4.172
606933.252	-20.862	11.325	-16.689	0.894	30.398	-5.960	-1.788	0.000
606933.260	-31.292	-1.490	-24.140	-11.623	19.670	-16.391	-11.027	-5.960
606933.268	-23.246	-0.596	-18.477	-14.603	23.544	-10.133	2.086	-6.258
606933.276	-29.206	-5.066	-20.564	-24.736	21.160	-3.576	-2.682	1.788
606933.284	-21.160	12.517	-9.537	-8.941	25.034	-9.239	-2.980	-5.960
606933.292	-25.332	8.345	-16.987	-3.278	15.795	-5.364	-5.364	-2.682
606933.300	-33.081	3.576	-24.438	-8.643	6.557	-12.517	-11.623	-8.345
606933.308	-25.630	1.192	-13.113	-19.670	16.093	-4.470	4.172	-6.557
606933.316	-22.948	2.384	-11.027	-28.014	29.206	7.451	7.153	6.855
606933.324	-3.278	29.206	5.066	-2.682	35.763	3.874	12.517	0.596
606933.332	-17.881	21.160	-8.345	4.470	19.968	-3.576	-7.451	-5.662
606933.340	-27.418	12.517	-11.027	3.874	13.411	-8.643	-15.199	-8.643
606933.348	-14.901	12.815	-1.490	4.470	17.285	0.894	3.874	-5.364
606933.356	-21.756	1.192	-11.921	-22.352	17.881	-1.192	-5.066	-4.470
606933.364	-12.219	19.372	-2.086	-8.941	25.034	-3.874	0.894	-7.153
606933.372	-17.881	17.583	-8.345	2.384	14.901	4.768	-0.596	1.788
606933.380	-22.948	14.603	-4.470	0.894	10.133	-3.278	-7.153	-2.682
606933.388	-15.199	12.815	8.047	-0.596	11.325	6.557	12.219	2.086
606933.396	-25.630	1.490	-7.749	-26.822	7.153	8.643	7.153	4.470
606933.402	-9.239	29.504	1.192	14.901	17.583	6.855	13.411	-0.596
606933.410	-9.835	29.206	-0.894	18.179	19.968	13.709	5.364	3.576
606933.418	-14.007	23.842	-0.894	9.239	17.285	4.172	-1.788	1.192
606933.426	-4.172	30.994	9.537	9.835	20.266	9.239	14.305	5.066
606933.434	-16.987	11.623	-5.364	-20.564	6.855	9.537	8.941	7.153
606933.442	-9.239	18.477	-0.596	-7.749	3.278	9.537	21.756	8.345
606933.450	-20.564	17.285	-15.795	6.557	6.557	5.662	7.451	6.557
606933.458	-33.081	8.345	-17.285	3.874	-0.894	-9.835	-8.345	-7.153
606933.466	-13.411	19.968	0.298	13.113	9.239	-2.980	11.027	-5.662
606933.474	-12.517	22.352	1.490	3.874	9.239	-5.066	-0.894	-2.980
606933.482	-6.258	31.888	9.835	11.027	12.219	-9.239	0.596	-7.153
606933.490	-17.881	17.583	-1.490	-6.557	6.557	-2.086	-2.086	-2.384
606933.498	-25.928	8.941	-5.066	-19.372	-1.192	-8.345	-8.941	-7.153
606933.506	-14.901	16.093	4.172	-12.815	-2.980	-2.980	3.874	-3.874
606933.514	-24.140	13.113	-10.431	1.788	-3.278	-1.192	-1.490	4.768
606933.522	-20.564	19.073	-9.537	13.411	-4.768	-11.325	2.980	-5.364
606933.530	-30.398	1.490	-25.630	-14.305	-18.179	-14.901	-6.557	-10.431
606933.538	-35.167	-7.749	-23.842	-20.564	-17.583	-17.583	-11.325	-9.239
606933.546	-17.285	14.603	-3.576	-4.768	-1.788	-3.278	12.219	1.192
606933.554	-24.140	12.517	-9.537	-13.709	-6.557	0.894	2.980	6.855
606933.562	-21.756	9.239	-8.345	-7.451	-12.219	-11.921	4.172	-6.855
606933.570	-19.670	4.172	-16.689	4.172	-6.855	-3.278	11.325	2.980
606933.578	-24.140	0.596	-19.968	-6.258	-8.643	-12.815	-2.384	-3.874
606933.586	-14.007	12.219	-4.172	8.047	-8.345	-10.133	4.172	-4.470
606933.594	-32.187	-11.325	-21.160	-15.199	-23.246	-19.968	-15.795	-8.345
606933.602	-21.458	-7.749	-16.689	-16.689	-14.007	-24.438	-5.662	-14.007
606933.610	-18.477	-12.517	-16.987	-11.027	-5.662	-14.305	0.000	-0.596
606933.618	-22.054	-20.266	-10.133	-12.815	0.596	-17.285	-5.066	0.596
606933.623	-22.054	-18.775	-19.670	-17.583	-5.066	-19.670	0.298	-4.470
606933.631	-32.187	-25.928	-33.081	-25.034	-14.305	-22.948	-13.113	-5.662
606933.639	-12.517	-6.855	-5.662	-2.682	4.172	-19.670	0.000	-3.576
606933.647	-18.477	-20.564	-13.709	-11.623	0.298	-22.352	-5.364	-3.576
606933.655	-28.014	-28.610	-21.458	-24.140	-9.537	-38.147	-17.881	-16.093
606933.663	-18.477	-25.630	-8.047	-19.968	-0.894	-28.610	-0.894	-10.431
606933.671	-28.908	-32.485	-20.564	-40.233	3.576	-28.312	-10.133	-2.384
606933.679	-20.862	-25.034	-15.497	-14.901	15.795	-38.147	-6.557	-10.431
606933.687	-27.418	-31.590	-27.418	-23.842	3.874	-34.571	-8.345	-5.662
606933.695	-24.140	-21.756	-25.034	-17.583	3.874	-39.935	-11.623	-10.133
606933.703	-12.219	-12.517	-14.901	-1.788	21.458	-34.571	2.682	-7.153
606933.711	-24.736	-23.246	-20.266	-23.246	16.391	-39.041	-12.815	-8.047
606933.719	-14.901	-14.007	-7.451	-17.881	22.054	-40.531	-4.768	-9.835
606933.727	-19.968	-26.226	-17.881	-28.312	21.160	-31.590	-3.576	2.384
606933.735	-22.352	-26.524	-20.862	-21.160	21.756	-39.041	-11.325	-5.364
606933.743	-15.199	-14.305	-16.689	-15.199	22.948	-33.677	6.258	-2.980
606933.751	-33.081	-26.822	-37.253	-21.756	5.960	-34.571	-8.345	-1.192
606933.759	-16.689	-14.603	-17.285	-7.749	23.842	-37.551	1.192	-5.066
606933.767	1.490	-2.980	5.662	-4.470	51.856	-23.246	10.729	12.517
606933.775	-6.855	-14.007	0.596	-17.583	43.213	-42.617	-7.749	-1.788
606933.783	-3.874	-8.047	0.000	-21.458	40.829	-47.684	-4.768	-11.027
606933.791	-19.968	-23.544	-15.497	-36.359	33.677	-50.366	-15.199	-10.729
606933.799	-8.345	-9.835	-12.815	-22.054	43.213	-54.240	-5.662	-17.285
606933.807	-14.603	-16.391	-22.352	-32.485	38.445	-41.127	-1.490	-3.576
606933.815	-18.775	-20.564	-23.842	-42.021	25.630	-44.405	-6.258	-2.086
606933.823	-14.305	-13.709	-15.795	-19.372	31.590	-39.637	5.364	-0.894
606933.831	-21.160	-16.987	-24.438	-22.948	35.167	-38.743	0.894	2.682
606933.839	-10.133	-3.278	-11.623	-9.537	35.465	-51.260	-0.298	-9.239
606933.859	-15.497	-16.689	-18.477	-18.775	34.869	-45.598	-2.682	-3.576
606933.867	-17.285	-8.345	-18.477	-23.842	36.061	-47.982	-5.662	-3.874
606933.875	-9.239	5.364	-4.172	-13.113	38.743	-33.975	12.815	6.557
606933.883	-28.312	-17.881	-24.140	-33.975	24.140	-41.723	-5.662	4.172
606933.891	-17.881	-8.941	-16.093	-25.630	23.544	-44.703	1.490	-3.576
606933.899	-18.179	-11.325	-17.881	-30.100	30.696	-36.061	3.874	3.576
606933.907	-22.948	-15.497	-15.199	-37.551	26.524	-49.472	-5.066	-2.384
606933.915	-17.583	-9.239	-12.815	-32.783	32.485	-44.405	6.258	0.894
606933.923	-23.544	-16.987	-16.093	-32.485	32.485	-43.213	-5.364	5.364
606933.931	-18.477	-3.874	-12.219	-20.862	34.571	-55.134	-6.557	-5.662
606933.939	-22.948	-10.729	-20.266	-18.775	25.332	-45.002	-3.278	1.192
606933.947	-19.670	-8.047	-20.564	-15.497	25.928	-47.088	-0.298	-0.596
606933.955	-7.749	2.980	-8.941	-16.689	35.465	-39.935	13.411	4.768
606933.963	-17.583	-5.662	-13.113	-34.571	34.869	-42.021	-0.298	7.749
606933.971	-11.921	-2.086	-2.980	-25.630	35.763	-52.750	2.682	-4.470
606933.979	-13.113	-5.066	-6.855	-25.034	32.485	-46.492	-0.596	0.596
606933.987	-22.054	-8.047	-13.411	-27.120	25.332	-56.922	-11.027	-5.364
606933.995	-14.603	0.000	-11.921	-13.411	26.524	-49.770	0.596	-3.278
606934.003	-22.948	-10.431	-17.881	-23.544	27.716	-45.896	-4.470	2.980
606934.011	0.298	14.901	9.537	3.278	37.849	-48.876	8.643	-4.172
606934.019	14.901	27.716	20.564	3.278	36.061	-49.770	1.490	-3.576
606934.027	38.147	55.432	48.280	26.822	46.790	-58.413	-4.470	-5.960
606934.035	88.811	99.540	103.712	72.420	72.122	-51.558	11.027	-1.192
606934.043	133.514	140.071	145.733	99.838	91.493	-50.366	1.192	5.066
606934.051	202.060	207.722	212.789	161.529	121.891	-40.233	16.689	10.133
606934.059	237.525	249.147	243.783	192.523	134.408	-31.888	17.583	16.391
606934.067	269.413	286.400	276.566	229.180	149.906	-48.280	4.768	4.768
606934.075	309.348	327.826	314.713	269.711	161.529	-39.041	23.842	7.749
606934.078	324.845	348.389	332.594	278.056	167.787	-29.802	21.458	20.564
606934.086	347.197	374.019	351.369	300.109	176.728	-30.398	29.802	19.073
606934.094	336.468	372.827	321.269	306.070	173.151	-24.140	29.206	24.438
606934.102	326.633	358.224	313.520	293.553	165.999	-35.763	18.775	14.603
606934.110	316.501	348.091	315.607	278.354	151.992	-39.637	26.822	10.431
606934.118	273.287	315.309	269.711	264.049	123.382	-46.194	9.835	6.258
606934.126	259.280	302.792	230.670	248.253	115.037	-42.021	21.160	10.729
606934.134	225.008	263.155	194.013	204.146	93.877	-36.657	18.477	19.073
606934.142	191.033	211.895	201.166	164.211	90.301	-58.711	-3.278	2.980
606934.150	182.688	199.378	199.378	143.945	95.665	-56.028	5.066	2.384
606934.158	141.859	167.489	140.965	123.382	77.486	-64.373	-15.497	-1.788
606934.166	131.130	155.270	122.786	122.786	67.949	-63.479	-0.894	-6.258
606934.174	109.971	121.593	113.845	90.599	50.366	-46.790	8.643	6.557
606934.182	81.658	92.387	104.606	57.817	35.167	-51.856	2.086	2.086
606934.190	62.585	86.129	82.552	51.856	28.014	-50.962	8.643	-0.596
606934.198	28.014	56.922	41.425	32.485	14.901	-56.028	-4.768	0.596
606934.206	30.100	54.240	39.339	33.975	12.517	-56.028	6.855	-2.980
606934.214	19.670	41.425	19.372	26.822	8.047	-42.319	13.709	9.239
606934.222	3.278	27.716	11.623	9.537	0.894	-58.711	0.000	-2.682
606934.230	5.960	30.100	25.630	15.795	-3.874	-53.644	12.517	-1.788
606934.238	-12.219	10.431	-0.298	-1.192	-19.372	-56.922	-5.364	-1.490
606934.246	-8.047	14.603	0.298	-5.960	-9.537	-64.373	0.894	-8.047
606934.254	-26.822	-4.172	-5.364	-21.160	-14.901	-66.757	-8.345	-9.537
606934.262	-34.869	-4.172	-10.729	-7.749	-19.372	-73.314	-14.305	-15.497
606934.270	-20.862	5.960	-0.894	5.960	-17.285	-56.326	10.133	0.000
606934.278	-34.571	-3.874	-18.775	-9.239	-34.273	-56.922	-5.066	2.384
606934.286	-31.590	-2.384	-17.881	-11.921	-31.292	-68.247	-5.960	-9.835
606934.294	-42.915	-18.477	-29.802	-27.418	-41.723	-64.671	-11.027	-8.643
606934.297	-39.935	-12.219	-29.206	-26.524	-41.425	-64.671	-11.325	-9.239
606934.305	-29.802	-2.682	-16.987	-17.285	-34.273	-56.922	4.470	-4.172
606934.313	-42.617	-17.285	-25.034	-25.034	-37.551	-56.922	-6.258	-2.682
606934.321	-32.187	-0.894	-11.623	-8.643	-33.975	-62.287	-0.894	-10.133
606934.329	-38.147	-9.537	-25.034	-17.285	-42.617	-53.346	-1.788	-0.596
606934.337	-43.213	-15.497	-26.226	-25.034	-57.518	-63.181	-14.305	-10.729
606934.345	-36.955	-10.133	-18.775	-19.968	-57.518	-59.009	-5.662	-11.623
606934.353	-46.790	-17.583	-29.504	-25.332	-56.922	-56.922	-12.815	-5.364
606934.361	-29.504	3.874	-14.007	-8.941	-44.405	-59.307	-2.682	-10.431
606934.369	-25.630	-2.086	-14.305	-22.650	-38.147	-47.088	0.298	1.788
606934.377	-30.100	-10.729	-14.603	-18.179	-39.935	-53.942	-4.768	-1.788
606934.385	-23.246	-5.960	-13.411	-8.345	-48.578	-55.432	2.086	-6.557
606934.393	-37.551	-15.497	-32.485	-24.438	-61.989	-60.797	-14.305	-10.431
606934.401	-25.928	-6.557	-18.179	-4.768	-54.538	-67.353	-7.749	-18.775
606934.409	-29.206	-15.497	-23.544	-11.623	-51.260	-53.942	-5.066	-6.855
606934.417	-32.783	-25.630	-27.716	-34.273	-53.048	-64.075	-13.113	-14.305
606934.425	-23.544	-20.862	-22.352	-34.869	-53.644	-56.326	2.384	-12.517
606934.433	-31.590	-27.418	-28.312	-20.266	-55.134	-56.922	-10.133	-10.431
606934.441	-20.564	-12.219	-19.670	-2.384	-44.703	-60.499	-1.192	-18.775
606934.449	-28.312	-28.312	-35.763	-23.842	-47.386	-49.770	-2.086	-9.835
606934.457	-24.736	-30.696	-22.948	-14.901	-41.425	-58.711	-12.815	-16.689
606934.465	-7.451	-14.603	-0.298	0.000	-25.332	-50.068	1.788	-10.133
606934.473	-17.285	-28.312	-13.411	-20.266	-30.696	-49.472	-8.047	-6.855
606934.481	-7.153	-18.775	-14.007	-16.987	-23.842	-53.048	-0.298	-14.901
606934.489	-20.862	-35.763	-34.869	-30.398	-32.783	-45.598	-5.662	-7.749
606934.497	-31.292	-42.021	-32.485	-30.398	-34.869	-55.432	-15.199	-15.497
606934.505	-5.066	-16.391	-5.662	-5.364	-9.239	-49.472	-0.596	-10.729
606934.513	-13.411	-24.736	-13.411	-13.113	-10.729	-44.107	-6.855	-6.855
606934.533	-13.709	-27.418	-14.007	-19.073	-20.564	-48.578	-0.596	-13.709
606934.541	-23.842	-45.002	-25.332	-45.002	-24.438	-40.531	-5.066	-6.855
606934.549	-28.610	-44.703	-33.081	-43.213	-23.246	-47.684	-10.133	-12.815
606934.557	-19.073	-26.822	-30.398	-25.332	-18.477	-45.896	-0.596	-12.517
606934.565	-24.736	-33.379	-37.849	-28.610	-10.133	-47.088	-12.517	-11.325
606934.573	-11.921	-22.650	-17.285	-12.219	0.298	-50.664	-1.788	-18.179
606934.581	-17.881	-37.253	-17.583	-21.458	-2.682	-37.253	1.490	-7.749
606934.589	-19.670	-36.657	-18.477	-27.120	-6.855	-44.703	-4.768	-13.411
606934.597	-4.768	-19.968	-10.729	-25.034	4.470	-36.359	8.345	-6.557
606934.605	-20.266	-30.994	-26.226	-22.650	4.768	-39.637	-7.749	-7.153
606934.613	-7.451	-21.756	-17.285	-9.239	11.027	-42.319	7.749	-10.431
606934.621	-17.881	-29.206	-26.524	-24.736	0.000	-35.763	3.576	-6.557
606934.629	-21.458	-31.888	-22.054	-34.273	3.278	-45.598	-5.960	-15.795
606934.637	-10.431	-19.073	-13.113	-26.226	14.603	-39.637	5.364	-14.603
606934.645	-22.352	-33.081	-27.418	-32.783	10.729	-38.147	-4.768	-10.729
606934.653	-13.411	-23.544	-28.610	-16.391	13.709	-41.723	5.364	-15.199
606934.661	-23.246	-28.014	-36.955	-29.504	2.086	-33.677	0.596	-7.749
606934.669	-21.458	-25.630	-29.206	-27.418	10.133	-42.021	-6.855	-12.815
606934.677	-6.557	-17.285	-10.729	-15.795	21.458	-33.677	10.133	-6.258
606934.685	-22.650	-36.359	-22.352	-30.398	8.941	-38.445	-5.662	-8.345
606934.693	-14.901	-27.418	-18.477	-25.630	11.325	-46.790	-0.298	-15.795
606934.701	-25.034	-31.888	-33.677	-37.849	5.066	-35.763	0.298	-7.749
606934.709	-27.716	-26.822	-35.763	-31.590	11.623	-40.233	-2.980	-11.027
606934.717	-11.921	-16.987	-21.458	-19.670	22.650	-33.379	7.153	-5.960
606934.725	-32.783	-37.253	-37.551	-42.021	5.960	-42.319	-9.835	-11.027
606934.733	-19.372	-20.564	-27.120	-29.504	7.451	-47.684	-0.298	-16.987
606934.741	-28.312	-35.465	-37.849	-46.790	-4.172	-35.763	-1.490	-7.153
606934.749	-23.842	-29.206	-30.994	-43.809	1.192	-36.359	-0.298	-6.258
606934.757	-12.517	-16.689	-24.140	-15.199	11.325	-30.696	8.941	-3.576
606934.765	-29.802	-30.994	-34.869	-26.524	6.855	-40.829	-12.815	-10.729
606934.773	-26.524	-25.928	-25.332	-26.226	3.576	-50.366	-9.537	-21.160
606934.781	-27.418	-26.524	-31.590	-36.657	4.768	-40.531	-8.047	-10.431
606934.789	-20.266	-19.073	-28.014	-28.312	13.113	-45.300	-6.855	-14.007
606934.797	-10.431	-6.258	-21.458	-12.219	18.477	-32.485	11.027	-5.066
606934.805	-24.438	-19.670	-33.677	-29.802	2.682	-31.590	-1.490	-3.278
606934.813	-11.921	-7.451	-21.756	-19.073	8.345	-43.809	1.788	-16.093
606934.821	-25.630	-27.716	-27.716	-39.339	6.258	-33.975	2.384	-2.682
606934.829	-30.398	-30.696	-24.438	-47.684	11.027	-40.531	-9.835	-8.047
606934.837	-11.325	-16.391	-10.431	-23.842	18.775	-36.359	2.086	-8.047
606934.845	-13.113	-20.266	-15.795	-29.206	21.458	-34.869	-4.768	-4.172
606934.853	-9.835	-6.557	-11.027	-23.842	16.987	-41.127	1.192	-12.219
606934.861	-21.160	-18.179	-25.332	-30.398	2.086	-26.226	5.066	-0.894
606934.869	-28.610	-26.822	-30.100	-34.571	-3.874	-35.167	-4.470	-9.537
606934.877	-19.073	-18.775	-22.054	-36.061	0.298	-32.783	5.066	-8.941
606934.885	-27.120	-26.822	-35.167	-39.935	-2.384	-36.061	-4.768	-8.047
606934.893	-18.179	-12.815	-22.054	-22.650	5.662	-39.935	3.874	-14.901
606934.901	-25.630	-20.564	-26.524	-35.167	2.384	-34.273	1.788	-7.153
606934.909	-29.206	-19.372	-31.590	-41.425	-6.258	-46.492	-9.537	-15.497
606934.917	-13.709	-5.364	-16.391	-24.736	1.490	-42.617	-0.894	-17.285
606934.925	-16.689	-10.729	-17.285	-20.564	6.258	-34.869	-5.066	-9.537
606934.933	-5.066	-0.894	-9.239	-4.768	9.537	-28.014	15.497	-4.172
606934.941	-21.160	-17.285	-30.100	-36.061	-5.364	-27.716	8.345	-3.576
606934.949	-30.100	-20.564	-28.908	-39.339	-10.729	-42.319	-7.451	-15.795
606934.957	-22.352	-15.497	-21.160	-25.034	-7.153	-37.253	0.000	-11.027
606934.965	-36.359	-23.842	-36.359	-39.935	-14.305	-38.147	-11.921	-9.835
606934.973	-19.670	-7.451	-16.987	-22.650	-9.537	-39.935	-0.596	-14.007
606934.961	-30.696	-15.199	-27.418	-29.802	-19.073	-32.485	-2.980	-5.066
606934.969	-30.696	-21.756	-28.610	-39.935	-13.411	-37.551	-4.470	-12.815
606934.977	-16.093	-7.451	-16.093	-19.372	-8.643	-27.120	12.517	-8.345
606934.985	-22.650	-11.921	-29.206	-23.544	-15.497	-30.100	-0.894	-4.470
606934.993	-8.643	2.980	-14.603	-16.987	-5.960	-25.630	17.285	-0.596
606935.001	-14.603	-6.855	-11.921	-23.544	-1.490	-13.113	16.093	10.729
606935.009	-19.372	-10.431	-14.305	-25.034	-11.921	-26.226	8.345	0.596
606935.017	-19.073	-4.172	-19.670	-19.670	-20.266	-31.590	7.153	-7.153
606935.025	-34.273	-16.093	-35.763	-25.630	-25.332	-36.657	-11.325	-9.835
606935.033	-21.160	-7.153	-19.670	-14.901	-15.497	-39.339	-0.298	-14.305
606935.041	-26.524	-13.411	-21.756	-25.928	-17.583	-26.226	0.596	-5.662
606935.049	-25.034	-9.537	-22.054	-25.034	-16.391	-33.379	-2.384	-11.027
606935.057	-11.921	-3.278	-15.199	-19.670	-12.219	-26.822	12.219	-4.470
606935.065	-23.544	-14.901	-19.670	-37.253	-21.160	-22.948	0.596	1.490
606935.073	-20.862	-10.729	-21.458	-23.544	-25.630	-30.994	3.576	-9.239
606935.081	-30.994	-19.968	-29.504	-28.610	-37.551	-24.140	-0.596	-3.874
606935.089	-32.783	-18.477	-27.120	-32.187	-31.292	-28.312	-4.768	-5.960
606935.097	-23.544	-13.411	-20.266	-28.610	-16.987	-25.034	5.960	-3.278
606935.105	-39.041	-33.379	-40.233	-43.809	-28.014	-34.869	-10.431	-10.133
606935.113	-33.081	-25.332	-30.994	-32.783	-28.610	-31.888	5.662	-10.133
606935.121	-38.743	-21.458	-38.445	-35.465	-37.849	-23.842	2.980	-2.086
606935.129	-26.524	-0.894	-20.862	-14.007	-32.485	-35.167	-7.451	-10.133
606935.137	-8.941	11.623	-2.384	0.298	-17.881	-26.524	8.047	-4.768
606935.145	-24.140	-8.345	-18.775	-19.670	-27.716	-26.822	-2.980	-3.278
606935.153	-20.564	-9.239	-17.881	-20.564	-34.869	-33.081	8.345	-13.113
606935.161	-33.975	-21.160	-33.677	-34.273	-39.041	-26.524	1.490	-8.941
606935.169	-32.187	-14.007	-30.696	-28.312	-38.445	-33.975	-3.874	-11.921
606935.177	-26.822	-5.662	-22.650	-10.431	-37.253	-27.418	5.364	-9.537
606935.197	-39.339	-16.391	-35.763	-18.775	-45.598	-25.928	-7.749	-6.258
606935.205	-31.292	-12.517	-28.908	-19.073	-42.617	-36.359	0.596	-17.583
606935.213	-35.167	-22.650	-33.975	-32.783	-41.127	-27.418	-2.086	-10.133
606935.221	-30.994	-17.285	-24.736	-21.160	-38.147	-28.312	-2.086	-10.729
606935.229	-26.524	-16.987	-27.120	-20.266	-38.743	-23.842	10.133	-7.451
606935.237	-45.002	-39.339	-47.088	-39.935	-53.346	-33.081	-9.537	-11.921
606935.245	-33.379	-27.120	-35.763	-25.034	-48.876	-38.445	-1.192	-17.583
606935.253	-39.935	-37.253	-39.935	-35.763	-49.770	-27.418	-5.364	-7.749
606935.261	-40.531	-42.021	-44.107	-41.127	-45.896	-40.233	-13.709	-19.670
606935.269	-31.292	-35.465	-36.657	-33.975	-42.617	-33.081	0.596	-17.285
606935.277	-39.637	-48.578	-39.935	-32.485	-41.127	-28.908	-9.835	-13.113
606935.285	-31.292	-42.617	-34.869	-25.630	-35.465	-36.657	-5.662	-21.458
606935.293	-36.061	-50.068	-40.829	-38.743	-39.041	-24.736	-2.980	-7.749
606935.301	-33.379	-37.551	-36.359	-26.822	-32.783	-33.081	-11.623	-15.199
606935.309	-23.246	-32.783	-30.100	-16.391	-24.140	-29.802	-1.788	-13.411
606935.317	-41.127	-57.220	-44.405	-39.935	-34.869	-35.763	-19.670	-18.179
606935.325	-28.908	-40.233	-30.994	-25.332	-27.120	-35.167	-7.749	-20.564
606935.333	-23.544	-36.061	-30.100	-25.928	-12.517	-19.372	0.894	-5.364
606935.341	-21.756	-34.869	-28.908	-27.716	-10.729	-30.994	-6.258	-12.815
606935.349	-20.862	-36.657	-29.504	-26.524	-9.537	-29.802	0.298	-14.901
606935.357	-31.590	-48.578	-40.829	-40.233	-12.517	-32.485	-14.305	-16.987
606935.365	-13.709	-32.485	-21.756	-27.716	-4.768	-30.100	0.000	-16.391
606935.373	-17.285	-37.551	-25.928	-29.504	-1.490	-9.537	9.835	4.470
606935.381	-19.670	-40.233	-25.928	-33.677	4.470	-22.948	2.980	-6.557
606935.389	-11.027	-35.167	-20.564	-26.524	6.855	-23.842	8.941	-11.027
606935.397	-23.544	-40.531	-32.783	-33.677	1.490	-25.034	-5.066	-10.431
606935.405	-5.066	-20.564	-15.199	-5.960	16.689	-26.226	6.557	-12.815
606935.413	-11.027	-28.610	-21.458	-16.391	15.497	-15.795	3.874	-4.172
606935.434	-14.007	-28.908	-19.968	-19.968	16.987	-32.485	-9.537	-14.603
606935.442	-4.768	-16.093	-7.153	-17.285	21.756	-24.140	-1.490	-8.345
606935.450	-15.497	-28.312	-24.736	-21.458	14.603	-22.948	-10.133	-6.258
606935.458	-3.576	-17.583	-16.093	-4.768	17.881	-21.160	5.066	-7.451
606935.466	-14.603	-30.994	-23.246	-25.332	9.835	-16.391	0.298	-2.086
606935.474	-20.266	-32.187	-25.034	-22.948	7.749	-28.610	-8.643	-10.729
606935.482	-10.431	-22.352	-16.093	-17.881	15.795	-19.968	2.980	-6.855
606935.490	-16.689	-27.716	-17.881	-25.630	22.650	-19.372	-9.537	-6.855
606935.498	-6.855	-11.325	-10.729	-6.557	23.246	-29.802	-6.855	-18.477
606935.506	-10.133	-16.987	-18.775	-16.689	21.458	-18.179	-5.364	-5.662
606935.514	-10.133	-23.246	-8.345	-25.332	25.034	-21.160	-8.941	-8.941
606935.522	-10.133	-20.862	-8.643	-24.140	22.054	-16.093	2.384	-6.258
606935.530	-16.391	-21.458	-12.517	-21.756	19.670	-19.073	-7.749	-7.451
606935.538	-0.298	-10.729	-0.298	-11.027	27.120	-18.775	6.855	-9.537
606935.546	-9.537	-16.689	-14.007	-11.325	17.285	-9.537	1.192	-0.298
606935.554	-11.325	-14.603	-15.199	-4.470	23.246	-22.352	-6.557	-10.133
606935.562	2.384	-1.490	1.192	-7.153	34.571	-8.941	11.325	-1.192
606935.570	-16.093	-16.987	-12.517	-18.179	16.093	-15.199	-8.345	-6.557
606935.578	-6.855	-6.258	-5.066	2.980	24.438	-16.093	3.576	-9.537
606935.586	-13.113	-16.391	-11.921	-10.431	25.928	-7.451	4.172	-0.596
606935.594	-18.477	-21.160	-15.795	-20.266	14.901	-20.266	-1.788	-9.537
606935.602	-9.239	-14.603	-13.113	-13.113	17.583	-9.537	8.643	0.298
606935.610	-16.391	-19.372	-20.266	-16.093	22.948	-5.960	0.298	6.557
606935.618	-13.113	-10.729	-14.603	-15.199	17.881	-14.603	4.470	-7.749
606935.626	-20.266	-16.987	-20.266	-19.670	3.278	-7.749	-0.298	-1.490
606935.634	-13.709	-13.709	-12.517	-9.239	15.795	-20.266	-8.345	-9.239
606935.642	4.172	3.278	5.364	0.596	38.147	-6.557	9.835	0.596
606935.650	-11.921	-9.835	-9.537	-8.941	28.908	-2.384	2.384	4.768
606935.638	-5.066	2.682	-11.325	5.364	25.928	-6.855	8.941	-2.086
606935.646	-15.497	-10.729	-22.054	-9.537	14.901	-7.451	0.000	-2.384
606935.654	-14.901	-12.219	-8.047	-11.325	18.179	-19.670	-6.855	-10.729
606935.662	-6.557	-5.364	1.192	-10.133	22.650	-3.576	9.835	0.894
606935.670	-16.391	-16.391	-8.345	-22.054	19.968	5.364	4.172	8.941
606935.678	1.788	0.000	6.855	-1.788	30.398	2.086	18.775	10.133
606935.686	-9.239	-4.768	-8.643	-7.153	22.054	-2.682	5.066	8.047
606935.694	-12.815	-4.172	-10.133	-6.557	19.968	-13.709	-3.576	-5.066
606935.702	-4.172	0.894	-0.894	-2.086	22.650	1.788	15.497	2.980
606935.710	-7.451	0.596	-3.576	0.596	22.650	11.921	11.921	15.497
606935.718	6.557	16.391	13.709	18.477	36.061	9.239	21.756	13.113
606935.726	-9.835	-2.086	-5.960	-2.384	24.140	8.643	11.623	12.517
606935.734	-13.411	-4.470	-7.451	-6.557	18.775	-3.576	4.768	0.000
606935.742	-4.172	-1.788	-3.278	-1.490	18.477	5.960	20.862	4.768
606935.750	-15.199	-13.113	-11.921	-25.928	12.517	6.855	8.047	7.451
606935.758	-10.431	0.894	-0.596	-10.133	9.537	-5.066	4.470	-5.066
606935.766	-15.199	-6.855	-6.557	-2.980	9.835	2.682	3.874	3.576
606935.774	-19.372	-8.047	-14.305	-9.239	-1.192	-9.239	-2.384	-4.768
606935.782	-8.345	0.298	-5.960	4.172	6.258	7.153	15.795	8.047
606935.790	-17.285	-7.451	-9.239	-12.815	6.258	8.643	3.278	12.517
606935.798	-6.258	8.643	2.980	0.894	9.537	-1.788	6.557	-0.298
606935.806	-13.709	0.298	-7.153	-6.557	8.941	2.980	0.894	4.470
606935.814	-13.709	-4.172	-9.239	-5.364	5.066	-6.855	-1.788	-2.086
606935.822	-14.305	-9.835	-11.325	-14.305	0.894	-0.298	8.941	-1.490
606935.830	-24.438	-14.007	-16.093	-28.014	-4.470	4.470	-0.298	1.490
606935.838	-7.749	5.960	2.384	7.153	0.894	-0.894	5.364	-4.768
606935.846	-19.968	-9.835	-12.219	-4.768	-8.643	2.980	-0.596	1.192
606935.854	-19.073	-7.451	-7.451	-10.431	-8.643	-0.894	-0.894	-1.192
606935.874	-10.431	4.470	-1.788	2.384	-10.431	8.047	11.623	4.768
606935.882	-18.477	-6.258	-12.517	-3.874	-8.941	8.941	2.980	7.153
606935.890	-3.576	8.643	3.278	11.921	3.576	2.086	12.517	-1.490
606935.898	-19.372	-6.557	-13.709	-10.133	-7.451	3.278	-0.298	1.192
606935.906	-18.775	-4.768	-13.411	-3.874	-9.239	-6.557	-7.451	-6.557
606935.914	-5.364	7.451	-3.278	6.557	-8.047	2.980	7.749	-2.086
606935.922	-18.775	-7.749	-14.007	-12.815	-14.007	1.490	-3.576	-2.682
606935.930	-5.960	5.960	3.278	-1.192	-2.086	0.298	6.258	-5.662
606935.938	-11.325	4.470	-5.960	1.788	-7.451	8.941	0.596	4.768
606935.946	-16.689	1.490	-10.133	-0.298	-11.921	-0.596	-7.451	-2.682
606935.954	-8.345	0.298	-2.086	-1.490	-7.153	9.239	7.749	5.066
606935.962	-25.928	-14.603	-21.756	-12.219	-22.352	-0.894	-14.007	-3.278
606935.970	-8.941	9.239	-6.557	11.325	-12.815	-5.662	-1.788	-6.557
606935.978	-13.709	0.298	-6.557	4.172	-17.285	5.662	-2.384	3.278
606935.986	-19.073	-1.788	-4.172	-2.980	-16.987	-2.086	-6.258	-3.874
606935.994	-18.477	-8.941	-7.749	-6.855	-15.199	3.874	4.172	0.000
606936.002	-18.775	-7.749	-10.729	4.470	-15.795	0.596	-7.451	1.788
606936.010	-4.172	12.219	0.298	25.630	-10.431	-3.278	1.490	-2.682
606936.018	-12.815	-0.298	-10.729	5.662	-15.497	0.596	-5.662	-0.894
606936.026	-13.411	-5.662	-7.153	-3.576	-15.199	-7.749	-8.345	-9.537
606936.034	-4.768	-2.682	-0.894	-2.086	-11.027	5.960	9.239	1.490
606936.042	-18.477	-16.391	-14.305	0.596	-15.497	7.749	-2.384	4.768
606936.050	-11.921	-13.411	-10.431	10.431	-16.689	-5.364	-2.980	-10.133
606936.058	-15.497	-20.266	-18.477	-5.066	-16.689	5.662	-4.470	-1.192
606936.066	-13.709	-22.650	-12.815	-9.537	-18.179	-0.596	-6.557	-6.258
606936.074	-0.298	-14.901	-3.278	6.258	-6.855	11.921	10.431	5.066
606936.082	-15.199	-25.928	-20.564	1.192	-9.239	5.066	-8.941	2.384
606936.090	0.298	-9.239	-3.874	11.921	3.278	5.662	4.470	-1.192
606936.092	-8.643	-26.524	-11.027	-7.451	-1.788	13.411	2.384	5.662
606936.100	-6.557	-24.140	-6.557	-2.682	4.470	6.855	3.278	4.172
606936.108	0.298	-16.689	-3.874	10.431	6.557	11.921	11.027	5.066
606936.116	-11.325	-29.206	-19.073	0.000	2.682	9.537	-2.682	3.278
606936.124	1.192	-19.073	-9.835	8.345	11.027	2.682	2.980	-3.874
606936.132	-16.093	-37.849	-25.928	-31.292	1.192	4.768	-6.855	-2.980
606936.140	-19.073	-37.253	-24.736	-33.975	-2.384	-8.643	-14.007	-11.325
606936.148	-4.768	-20.862	-14.901	-1.490	12.517	2.980	-1.788	-0.596
606936.156	-10.729	-28.610	-22.352	4.470	13.411	5.662	-11.921	4.768
606936.164	0.298	-21.160	-7.749	4.470	16.391	2.086	-2.980	-1.192
606936.172	-9.537	-33.379	-17.583	-10.133	12.517	11.027	-4.172	7.749
606936.180	-11.325	-25.928	-20.266	-11.325	13.411	0.000	-9.239	-1.490
606936.188	-1.788	-18.477	-5.960	-5.960	22.650	8.941	-0.894	3.576
606936.196	-16.689	-35.465	-19.670	-20.266	19.670	4.768	-17.583	0.596
606936.204	-2.384	-19.670	-7.153	-10.431	25.332	2.682	-0.298	-0.894
606936.212	-10.729	-27.418	-16.689	-15.199	14.603	10.729	-2.682	7.451
606936.220	-9.537	-29.802	-15.199	-19.073	21.756	2.682	-6.258	2.086
606936.228	-2.086	-22.054	-11.623	-11.027	29.504	10.133	3.874	5.364
606936.236	-16.093	-31.590	-22.650	-9.239	21.458	0.000	-15.199	-1.490
606936.244	-2.384	-15.795	-8.047	2.086	22.650	-4.768	-5.066	-8.643
606936.252	-17.583	-34.571	-31.590	-25.034	15.199	4.470	-6.855	-0.894
606936.260	-18.477	-29.802	-27.418	-17.881	19.073	-6.855	-16.093	-8.643
606936.268	-0.894	-11.325	-7.749	5.960	29.206	9.537	5.960	3.874
606936.276	-12.517	-19.968	-17.285	-8.345	22.650	12.219	-1.192	6.855
606936.284	-4.470	-11.921	-12.517	-2.384	27.716	7.451	8.643	1.490
606936.292	-17.285	-25.332	-25.034	-25.630	20.862	15.199	3.576	7.749
606936.300	-9.239	-17.583	-12.219	-16.093	27.716	15.795	7.749	5.960
606936.308	1.788	-8.345	-3.278	-4.172	30.398	25.630	23.246	15.199
606936.315	-16.689	-21.458	-24.140	-10.729	20.266	15.497	1.192	8.345
606936.323	-6.855	-9.239	-10.431	6.557	28.610	13.411	10.431	5.364
606936.331	-14.305	-21.160	-17.583	-11.027	19.670	21.160	10.431	11.325
606936.339	-13.113	-14.603	-16.093	-5.364	14.901	10.729	2.682	0.894
606936.347	-4.470	-5.364	-11.027	3.278	15.497	22.054	17.881	8.643
606936.355	-9.239	-13.113	-16.689	-10.431	19.372	28.610	13.113	15.199
606936.363	7.451	1.788	3.874	5.960	30.994	29.802	30.398	16.689
606936.371	-7.749	-15.497	-9.239	-12.815	19.073	34.571	24.438	22.352
606936.379	-14.603	-17.285	-17.285	-12.219	19.372	15.795	6.258	6.557
606936.387	-4.768	-8.345	-8.047	-0.298	25.928	13.113	8.643	0.000
606936.395	-6.258	-11.325	-13.709	4.172	25.630	11.623	-1.192	1.788
606936.403	6.557	6.258	-0.298	15.795	31.292	12.219	14.901	0.000
606936.411	-2.682	-8.345	-10.133	-2.384	25.928	25.034	12.815	9.537
606936.419	-0.298	-2.682	-5.662	-7.451	27.418	22.352	15.795	8.047
606936.427	5.662	0.596	-1.192	-1.788	27.716	31.292	25.332	14.901
606936.435	-15.795	-16.093	-18.477	-16.689	12.517	17.285	-2.384	4.172
606936.443	-7.451	-7.749	-10.431	3.576	11.921	5.364	2.384	-9.239
606936.451	-9.537	-11.623	-10.431	-1.490	11.623	15.795	4.172	2.086
606936.459	-4.172	0.000	-7.749	-3.874	19.968	10.431	3.874	-1.490
606936.467	6.855	8.941	-1.490	11.623	32.783	22.054	19.073	8.047
606936.475	-3.874	-3.576	-5.066	2.682	22.948	24.736	5.662	13.411
606936.483	4.470	4.172	6.258	5.960	18.477	17.583	9.835	2.384
606936.491	-5.364	-5.066	-8.941	-12.517	12.517	19.968	2.980	4.768
606936.499	-14.007	-6.258	-13.411	-5.662	9.239	6.557	-3.576	-5.364
606936.507	-7.153	-3.576	-9.537	0.298	5.364	16.391	9.239	2.086
606936.515	-17.285	-19.073	-19.073	-14.603	2.384	16.689	-1.192	4.470
606936.523	2.086	5.066	1.192	-4.768	17.285	17.285	16.987	3.576
606936.531	-1.192	-2.384	-2.682	-16.987	13.113	28.610	14.901	14.305
606936.553	-4.768	-1.490	-3.576	5.662	8.345	12.219	0.000	0.894
606936.561	8.047	14.901	6.855	20.564	13.113	19.372	13.411	8.345
606936.569	-7.153	-0.596	-4.470	-1.490	-0.596	14.305	0.894	6.855
606936.577	0.596	12.815	0.000	2.980	5.364	7.451	4.768	-2.384
606936.585	-14.007	-5.066	-15.497	-16.987	2.086	14.305	-1.788	2.086
606936.593	-14.305	-4.470	-7.451	-10.133	-0.894	3.576	-10.133	-7.749
606936.601	-4.470	1.192	-1.490	4.768	1.788	12.815	5.364	2.086
606936.609	-14.901	-9.835	-12.815	-5.960	-7.749	9.835	-9.537	1.490
606936.617	-2.086	2.682	-2.384	-1.788	-3.278	6.557	0.894	-4.470
606936.625	-13.709	-5.662	-16.689	-10.133	-11.921	14.901	-1.490	0.894
606936.633	-14.901	-6.258	-11.027	-5.364	-18.477	6.855	-3.874	-3.576
606936.641	-8.047	0.894	-8.643	0.596	-15.497	16.987	12.815	4.172
606936.649	-17.583	-6.855	-16.689	-9.835	-14.305	15.199	1.490	5.364
606936.657	-12.219	0.298	-9.239	-2.384	-13.709	8.345	9.239	-2.086
606936.665	-26.226	-16.689	-22.054	-25.034	-22.948	14.007	2.086	0.894
606936.673	-29.504	-22.650	-25.034	-26.524	-28.014	-3.576	-6.258	-12.517
606936.681	-12.815	-2.384	-14.305	-3.576	-20.564	9.835	9.537	-4.768
606936.689	-16.391	-1.788	-11.027	-8.941	-21.160	16.391	1.788	3.278
606936.697	-8.047	3.874	-1.788	4.172	-19.073	13.709	9.835	-0.596
606936.705	-26.524	-14.007	-25.928	-21.160	-31.888	17.881	1.192	2.384
606936.713	-24.438	-9.835	-24.736	-21.160	-36.061	12.815	0.596	-3.874
606936.721	-13.709	-7.153	-15.497	-22.054	-28.908	18.477	13.113	2.086
606936.729	-21.160	-12.517	-18.477	-23.544	-28.610	16.093	-0.596	1.788
606936.737	-6.557	9.537	-6.557	8.047	-20.862	13.411	10.133	-0.894
606936.745	-14.007	-0.596	-22.054	3.278	-30.994	21.458	5.364	7.749
606936.753	-10.729	-0.894	-17.881	2.086	-30.994	16.391	9.835	7.153
606936.761	-8.345	2.384	-11.027	5.364	-28.610	22.352	20.266	6.557
606936.769	-20.862	-10.431	-18.179	-12.517	-35.167	13.709	0.298	-2.086
606936.775	-9.835	6.258	-7.451	1.788	-31.292	11.623	9.537	-5.662
606936.783	-18.477	-5.066	-20.266	-4.172	-36.061	21.458	5.960	3.576
606936.791	-19.670	-5.960	-18.179	-4.470	-36.955	12.219	2.980	-3.576
606936.799	-12.815	-1.788	-10.133	-10.133	-33.975	20.564	16.093	1.788
606936.807	-22.054	-12.219	-21.756	-18.477	-42.617	16.093	2.384	2.384
606936.815	-7.153	8.047	-8.047	14.305	-34.571	13.113	14.007	-2.682
606936.823	-14.901	-2.384	-13.113	2.086	-35.465	20.564	5.662	4.470
606936.831	-15.199	-5.662	-10.133	-2.086	-26.822	12.815	1.490	1.192
606936.839	-8.047	-4.470	-7.749	4.172	-25.630	19.968	11.921	4.470
606936.847	-28.908	-27.716	-28.610	-13.709	-41.425	7.153	-10.729	-6.855
606936.855	-7.153	-8.643	-5.364	4.172	-31.292	10.431	6.855	-8.047
606936.863	-12.517	-20.564	-15.497	-10.729	-32.783	17.881	2.086	-2.682
606936.871	-14.305	-20.862	-17.881	-5.960	-28.014	7.451	-3.278	-8.941
606936.879	-11.027	-18.775	-12.815	-6.258	-32.187	10.133	3.278	-5.066
606936.887	-19.968	-30.696	-21.458	-14.901	-36.955	3.576	-10.729	-9.835
606936.895	-2.682	-16.689	-5.364	-2.086	-23.246	2.086	0.894	-13.113
606936.903	-11.921	-30.994	-18.775	-16.391	-28.908	12.517	-3.874	-4.768
606936.911	-4.470	-21.160	-11.325	5.066	-16.689	9.239	-1.192	-5.066
606936.919	2.384	-11.921	-5.066	8.345	-4.470	14.007	4.768	-1.788
606936.927	-14.901	-28.014	-22.352	-3.576	-13.113	9.537	-8.345	-7.153
606936.935	3.278	-11.325	-6.557	4.172	-3.576	8.941	8.047	-8.643
606936.943	-7.153	-20.564	-15.795	-6.855	-8.047	16.689	0.596	-3.278
606936.951	-6.258	-22.054	-15.199	-4.172	-7.451	4.470	-6.258	-16.093
606936.959	5.662	-16.987	-3.278	-2.384	0.000	18.775	9.835	-4.768
606936.967	0.000	-19.670	-11.027	-4.172	2.086	18.477	-0.596	-2.980
606936.975	22.054	7.451	6.855	26.524	14.305	10.729	8.941	-9.537
606936.983	8.345	-8.941	-5.662	4.470	8.941	11.921	0.596	-4.172
606936.991	1.192	-14.305	-11.027	-3.874	4.768	-1.788	-9.239	-18.179
606937.008	5.960	-11.027	-8.345	-3.576	5.364	7.749	1.192	-11.027
606937.016	-3.278	-20.266	-15.199	-9.835	4.470	2.682	-12.517	-10.729
606937.024	9.835	-8.047	-2.980	4.768	15.497	-1.788	-2.682	-16.689
606937.032	-0.298	-17.881	-13.709	-8.345	12.219	11.921	-3.576	-5.066
606937.040	3.576	-14.901	-6.855	-3.874	15.497	6.258	-3.576	-10.133
606937.048	14.305	-3.278	1.490	-0.596	19.968	15.795	8.643	-5.960
606937.056	0.894	-8.941	-8.345	-4.470	11.623	15.497	-2.980	-4.470
606937.064	11.325	0.298	-1.788	10.431	17.285	7.153	2.086	-14.007
606937.072	4.172	-10.133	-8.941	-8.941	18.477	13.709	-6.258	-7.153
606937.080	14.901	5.960	5.662	4.470	26.226	13.411	1.490	-5.066
606937.088	21.756	14.901	7.153	21.458	30.398	21.160	12.517	-0.298
606937.096	2.384	-5.364	-14.603	1.490	15.199	11.623	-8.047	-8.047
606937.104	10.431	-3.576	-5.960	2.384	20.266	3.874	-1.192	-19.372
606937.112	2.384	-10.431	-9.239	-10.133	19.372	15.497	-4.172	-9.239
606937.120	4.470	-2.086	-2.384	-11.027	19.073	2.086	-14.007	-22.054
606937.128	4.768	-0.298	-4.768	-0.596	14.305	5.960	-7.749	-20.564
606937.136	-6.258	-12.219	-19.670	-4.470	6.258	5.364	-16.391	-17.881
606937.144	11.027	6.258	0.000	4.172	16.987	8.047	0.596	-14.007
606937.152	0.596	-5.662	-9.537	-8.345	16.391	18.477	-1.192	-4.172
606937.160	-1.192	-8.941	-8.941	-8.643	9.537	7.451	-3.874	-15.795
606937.168	11.921	3.278	2.086	-6.855	16.093	19.670	12.219	-8.643
606937.176	2.384	-0.894	-7.153	-13.113	11.921	12.815	-8.643	-10.431
606937.184	14.007	9.835	4.470	11.623	16.093	7.749	-3.874	-15.199
606937.192	2.980	-2.682	-11.027	0.000	10.729	17.285	-5.662	-7.451
606937.200	8.345	2.980	-1.490	8.047	15.497	10.729	-1.490	-13.411
606937.208	16.391	9.835	6.855	14.007	18.477	22.650	11.921	-5.364
606937.216	-10.729	-10.133	-21.160	-17.285	-5.364	11.623	-8.345	-13.113
606937.224	3.576	2.086	-5.364	-2.980	10.133	9.239	1.192	-18.179
606937.213	5.364	0.596	-0.298	-6.557	19.968	14.007	-6.557	-13.411
606937.221	12.219	9.537	10.431	2.980	22.650	9.239	-5.066	-17.881
606937.229	24.140	19.372	19.670	13.709	28.312	27.120	16.391	-3.874
606937.237	12.517	6.855	8.345	-5.960	22.352	21.160	5.364	-6.258
606937.245	25.034	23.246	21.458	7.153	27.418	14.603	9.835	-12.219
606937.253	16.093	14.007	10.729	0.000	23.842	24.736	2.682	-0.894
606937.261	5.662	6.258	3.874	-4.172	14.901	8.345	-7.749	-15.199
606937.269	13.113	12.815	10.133	1.788	16.093	14.901	1.490	-11.921
606937.277	3.874	3.278	2.384	-10.729	11.623	14.901	-5.364	-11.027
606937.285	16.987	17.583	12.219	2.682	16.391	11.325	7.153	-14.901
606937.293	11.921	13.411	5.960	-2.086	12.219	16.689	-3.278	-8.345
606937.301	15.795	17.881	9.835	6.258	17.285	7.153	-7.451	-14.603
606937.309	15.795	11.921	10.431	-2.682	15.199	14.901	3.874	-10.431
606937.317	2.980	5.960	1.490	-10.729	3.576	10.729	-6.855	-13.411
606937.325	19.968	28.312	17.881	19.073	7.451	15.497	9.835	-13.113
606937.333	10.431	16.093	5.960	2.384	0.596	26.524	4.768	-3.576
606937.341	8.643	12.815	5.960	-6.855	-2.384	12.517	-7.153	-13.411
606937.349	17.285	21.756	13.411	5.066	5.364	17.881	3.874	-8.643
606937.357	13.113	19.968	10.133	8.345	4.768	15.497	-3.874	-8.345
606937.365	30.100	37.253	23.842	28.014	12.219	16.093	13.113	-12.219
606937.373	22.948	27.716	15.795	21.756	8.941	32.187	15.497	-0.596
606937.381	20.862	29.206	19.073	18.775	5.364	22.948	8.345	-8.941
606937.389	22.352	30.398	18.179	6.855	-2.384	25.332	11.623	-5.960
606937.397	6.855	14.007	2.384	-5.066	-10.133	11.921	-13.411	-14.901
606937.405	23.246	29.504	19.670	20.564	-2.384	7.749	0.000	-19.968
606937.413	11.325	17.881	8.047	6.557	-13.411	13.709	-3.874	-17.285
606937.421	17.285	25.630	17.285	5.662	-4.172	10.729	0.298	-20.564
606937.429	19.968	28.014	21.160	10.729	-0.894	21.458	10.729	-13.411
606937.434	3.576	13.113	7.153	0.000	-13.709	16.093	-8.345	-16.093
606937.442	19.968	32.485	21.458	27.418	-3.576	16.093	7.153	-15.199
606937.450	0.298	11.921	0.894	-1.788	-19.372	22.650	-1.490	-9.537
606937.458	5.364	20.862	5.662	12.219	-23.544	10.133	-8.345	-20.564
606937.466	12.517	29.802	4.172	19.073	-23.842	16.093	0.000	-18.775
606937.474	2.086	19.372	-0.894	9.835	-24.736	13.709	-8.941	-19.073
606937.482	16.391	31.888	14.901	24.140	-18.775	11.921	5.662	-21.160
606937.490	-1.192	11.921	-2.384	2.980	-29.802	19.372	-0.596	-14.603
606937.498	-2.086	8.047	-1.490	-4.768	-33.975	9.835	-2.086	-21.160
606937.506	5.066	13.709	1.788	-2.980	-32.485	20.862	10.431	-12.219
606937.514	-11.921	5.364	-13.709	-10.431	-38.743	10.729	-11.027	-19.372
606937.522	0.000	19.968	0.000	12.219	-33.677	5.662	-4.172	-25.034
606937.530	-8.345	5.066	-9.239	-5.662	-42.319	16.093	-8.941	-15.199
606937.538	-4.768	6.557	-3.576	1.192	-39.041	3.576	-17.285	-24.736
606937.546	-2.682	8.643	0.000	3.278	-34.869	9.835	-11.027	-22.352
606937.554	-13.113	-0.596	-12.815	-5.662	-38.147	3.874	-26.822	-25.630
606937.562	9.537	26.822	12.219	19.670	-30.994	6.557	-9.239	-22.352
606937.570	3.278	18.775	1.192	8.643	-34.273	17.881	-8.941	-12.219
606937.578	-2.384	7.451	-2.086	2.682	-38.445	0.298	-13.709	-28.312
606937.586	0.894	14.901	-1.490	4.470	-42.617	7.451	-2.086	-24.140
606937.594	-10.431	6.557	-16.391	2.682	-45.598	5.960	-12.815	-22.054
606937.602	2.086	14.603	-2.682	14.901	-36.359	2.980	-4.768	-30.398
606937.610	0.894	15.199	1.192	14.007	-33.975	15.199	-7.451	-16.093
606937.618	-0.894	18.477	0.298	16.093	-39.637	-0.894	-14.305	-29.802
606937.626	-0.596	14.901	-1.788	15.795	-46.194	9.239	-3.278	-25.034
606937.634	-17.881	0.000	-14.901	-3.874	-56.922	2.682	-22.650	-26.226
606937.642	-5.066	11.921	-4.172	8.345	-43.213	3.576	-3.576	-26.524
606937.650	-11.325	4.470	-12.219	-4.172	-41.723	16.987	-3.576	-14.603
606937.671	-12.219	10.133	-10.431	9.835	-56.326	-0.298	-14.603	-26.226
606937.679	-11.027	8.345	-11.623	16.093	-57.220	5.364	-11.325	-22.352
606937.687	-24.736	-9.835	-21.458	0.298	-58.413	-3.278	-29.802	-29.206
606937.695	-10.431	0.894	-5.662	11.921	-49.472	-1.788	-15.497	-30.994
606937.703	-17.285	-7.451	-14.305	-3.576	-53.644	7.451	-17.285	-16.689
606937.711	-12.815	-2.980	-8.345	-0.894	-49.174	-0.596	-15.795	-20.862
606937.719	-9.537	-8.643	-9.239	-7.451	-49.770	8.047	-9.537	-14.007
606937.727	-17.285	-13.709	-24.140	-7.749	-56.326	3.278	-25.034	-16.093
606937.735	-3.576	-5.066	-10.133	1.490	-44.703	1.490	-11.921	-16.689
606937.743	-11.027	-17.881	-14.305	-2.980	-45.002	14.603	-14.305	-4.172
606937.751	-7.749	-19.670	-14.305	4.470	-42.319	8.047	-14.305	-14.305
606937.759	-3.874	-13.709	-12.219	4.768	-36.955	15.497	-1.490	-8.345
606937.767	-25.928	-36.955	-26.822	-19.670	-45.896	5.960	-22.352	-12.815
606937.775	-14.305	-28.908	-17.881	-16.987	-36.955	0.298	-15.497	-20.862
606937.783	-13.113	-30.696	-21.160	-8.345	-35.763	6.557	-19.968	-12.815
606937.791	-9.835	-24.140	-20.564	1.788	-35.465	-5.364	-22.054	-20.862
606937.799	-9.537	-22.650	-19.372	-5.662	-31.590	3.874	-17.285	-16.987
606937.807	-25.630	-37.253	-31.888	-21.160	-33.081	-3.874	-32.783	-22.948
606937.815	-13.411	-24.140	-19.968	-15.199	-24.140	-4.172	-17.583	-25.928
606937.823	-20.862	-35.465	-29.504	-25.332	-27.418	6.855	-17.583	-13.709
606937.831	-18.477	-30.100	-27.120	-8.941	-26.822	0.894	-15.795	-20.266
606937.839	-16.689	-31.292	-30.100	-11.027	-29.802	10.729	-9.835	-16.391
606937.847	-26.226	-40.829	-41.723	-22.054	-32.485	8.941	-20.266	-12.815
606937.855	-8.941	-20.266	-21.458	0.000	-17.881	12.219	-3.874	-11.623
606937.863	-18.775	-33.677	-30.100	-14.007	-19.968	18.775	-10.431	-4.172
606937.871	-16.093	-32.187	-23.544	-22.054	-15.795	6.855	-11.921	-16.093
606937.879	-15.795	-33.379	-24.736	-16.093	-14.603	11.623	-7.153	-15.199
606937.887	-27.120	-42.617	-36.657	-23.544	-17.285	7.749	-23.246	-16.093
606937.874	-15.199	-30.696	-25.630	-15.795	-9.835	4.172	-9.835	-20.564
606937.882	-31.292	-50.962	-41.425	-45.002	-21.756	10.431	-19.670	-15.497
606937.890	-25.630	-35.167	-33.677	-27.120	-16.689	-2.086	-22.948	-25.928
606937.898	-13.709	-21.756	-23.842	-5.066	-7.451	9.835	-10.729	-15.497
606937.906	-27.418	-38.147	-40.233	-24.140	-12.219	2.384	-27.120	-19.073
606937.914	-12.815	-26.524	-26.226	-12.219	-3.576	5.364	-10.729	-18.775
606937.922	-17.285	-26.822	-26.524	-22.650	0.596	17.285	-11.027	-6.855
606937.930	-12.517	-19.968	-16.689	-9.835	2.682	7.153	-9.239	-17.285
606937.938	-13.709	-18.179	-19.670	-13.411	-5.364	7.153	-11.325	-16.689
606937.946	-27.418	-33.081	-35.167	-27.418	-12.219	0.894	-28.610	-19.372
606937.954	-12.219	-21.160	-22.948	-16.689	-0.596	3.874	-12.517	-19.670
606937.962	-21.458	-30.696	-35.167	-29.206	-7.749	8.643	-19.073	-11.027
606937.970	-18.775	-26.822	-30.696	-17.881	-6.855	-0.596	-20.862	-22.948
606937.978	-18.477	-27.418	-33.975	-25.630	-7.153	6.258	-12.219	-19.670
606937.986	-33.081	-34.571	-44.107	-33.081	-16.093	0.000	-28.014	-19.968
606937.994	-14.007	-17.583	-21.756	-15.497	-4.768	1.192	-13.709	-19.372
606938.002	-19.372	-22.054	-30.100	-22.650	-0.894	8.345	-19.968	-11.325
606938.010	-19.073	-22.650	-29.504	-17.285	-5.364	-7.749	-26.822	-27.120
606938.018	-14.007	-16.689	-24.438	-14.901	-3.576	8.643	-12.517	-14.901
606938.026	-26.226	-27.418	-34.273	-24.438	-10.431	6.258	-24.438	-16.391
606938.034	-8.047	-8.047	-20.266	-13.411	-0.596	1.490	-10.431	-23.544
606938.042	-17.285	-20.266	-32.485	-15.199	-6.258	15.199	-8.941	-12.815
606938.050	-18.477	-18.477	-31.590	-10.729	-14.305	-4.172	-19.073	-28.014
606938.058	-14.305	-22.054	-28.908	-14.901	-13.709	2.682	-14.305	-21.160
606938.066	-25.630	-33.081	-40.829	-35.167	-21.160	6.557	-23.544	-15.497
606938.074	-10.729	-12.517	-28.014	-25.332	-13.411	9.835	-6.258	-12.517
606938.082	-12.517	-10.431	-25.332	-11.027	-8.643	12.815	-11.921	-8.941
606938.090	-4.172	0.596	-14.901	0.000	0.298	1.490	-12.815	-21.756
606938.110	-7.153	-8.643	-19.372	-10.133	-7.153	2.980	-11.623	-21.160
606938.118	-19.372	-17.285	-28.610	-20.862	-17.285	5.066	-23.246	-16.689
606938.126	1.490	9.537	-10.729	4.768	-0.894	9.537	-5.066	-14.007
606938.134	-3.874	0.894	-12.815	-5.960	-1.490	19.073	-6.855	-5.364
606938.142	-9.537	-5.662	-17.583	-14.603	-11.027	-0.596	-19.372	-22.054
606938.150	-5.364	0.596	-18.775	-9.537	-7.451	8.941	-11.325	-16.093
606938.158	-18.179	-9.537	-22.054	-17.881	-12.815	7.153	-22.948	-14.901
606938.166	-7.749	-1.788	-9.239	-14.305	-16.093	4.768	-10.431	-19.073
606938.174	-16.391	-11.921	-25.928	-20.564	-24.736	8.047	-19.670	-20.564
606938.182	-11.325	-1.788	-20.266	0.000	-19.968	-5.662	-25.928	-27.120
606938.190	-7.153	-4.768	-16.391	6.258	-25.034	4.768	-15.795	-16.093
606938.198	-21.756	-15.199	-31.888	-20.564	-32.783	-2.384	-29.802	-23.544
606938.206	-8.643	5.066	-18.477	-8.345	-22.948	-2.086	-12.815	-24.438
606938.214	-19.372	-7.153	-30.994	-16.987	-30.100	5.662	-20.862	-18.477
606938.222	-12.815	-1.192	-22.650	-11.623	-25.332	-0.298	-20.862	-26.226
606938.230	-9.835	0.298	-16.093	-6.855	-29.206	1.788	-14.603	-22.948
606938.238	-26.226	-16.987	-31.888	-26.822	-35.465	-7.451	-31.292	-27.120
606938.246	-22.948	-13.411	-25.928	-25.332	-41.127	-11.325	-25.034	-34.869
606938.254	-31.590	-19.073	-35.465	-18.775	-46.194	-0.596	-27.418	-22.650
606938.262	-16.391	-3.576	-20.266	-0.596	-35.465	-0.596	-20.862	-22.352
606938.270	-7.153	3.278	-15.795	0.298	-28.908	11.027	-8.643	-11.623
606938.278	-20.862	-5.066	-27.120	-16.689	-34.571	1.192	-25.630	-18.775
606938.286	-7.451	9.537	-10.133	-3.278	-30.696	-6.258	-19.372	-29.206
606938.294	-18.775	-5.364	-25.034	-14.603	-37.253	-0.894	-26.226	-22.054
606938.302	-16.689	-4.768	-21.756	-8.643	-38.445	-13.113	-28.014	-34.869
606938.310	-8.047	4.768	-10.431	0.596	-39.041	0.298	-2.384	-23.544
606938.318	-24.438	-8.643	-25.034	-20.266	-48.876	-8.047	-5.066	-27.716
606938.326	-13.411	0.298	-18.477	-5.960	-41.425	-8.643	10.431	-32.485
606938.330	-21.756	-9.239	-28.908	-11.623	-45.598	8.047	9.537	-19.073
606938.338	-16.093	3.278	-19.372	-8.345	-45.300	-1.788	8.345	-26.226
606938.346	-8.345	8.941	-12.815	-3.576	-41.127	4.172	13.709	-20.564
606938.354	-21.160	-8.941	-21.756	-14.007	-47.088	-2.682	2.086	-21.458
606938.362	-9.835	5.662	-12.517	1.788	-41.723	-1.788	16.689	-22.352
606938.370	-22.054	-5.662	-25.034	-16.391	-47.982	2.682	11.027	-15.199
606938.378	-16.987	-1.490	-16.689	-3.278	-48.876	-9.835	4.172	-29.206
606938.386	-11.325	-4.470	-14.603	0.596	-50.664	8.047	17.583	-18.179
606938.394	-28.610	-15.497	-35.167	-22.054	-59.009	-2.086	0.596	-25.630
606938.402	-23.246	-2.980	-22.650	-8.047	-56.028	-5.662	11.623	-28.610
606938.410	-21.458	-12.219	-20.862	-22.650	-44.703	7.153	12.219	-16.689
606938.418	-9.835	1.490	-9.835	-5.364	-39.637	-4.768	9.835	-27.120
606938.426	-6.855	6.258	-5.662	-1.490	-38.743	5.364	18.477	-16.391
606938.434	-22.948	-5.066	-16.391	-11.623	-45.598	-1.788	2.682	-18.775
606938.442	-11.921	2.384	-4.470	-1.192	-42.617	-9.835	12.815	-26.822
606938.450	-23.246	-13.709	-19.968	-21.756	-50.664	-5.662	4.470	-23.544
606938.458	-16.093	0.000	-11.325	-16.987	-46.790	-9.537	3.874	-30.100
606938.466	-9.239	5.662	-7.451	-7.749	-40.233	2.980	12.219	-19.073
606938.474	-19.670	-7.153	-14.305	-18.775	-45.002	0.894	1.788	-19.073
606938.482	-11.027	3.576	-4.470	0.298	-46.492	-1.490	12.815	-23.246
606938.490	-32.783	-17.881	-27.716	-19.372	-66.459	-2.980	-4.172	-23.246
606938.498	-25.928	-9.537	-22.352	-11.325	-61.989	-12.815	-5.066	-31.888
606938.506	-19.073	-8.941	-15.795	-11.325	-49.174	2.980	14.305	-18.477
606938.514	-35.763	-21.160	-29.504	-26.524	-59.009	-3.874	-3.874	-23.544
606938.522	-27.716	-11.027	-22.948	-17.881	-62.287	-8.941	2.980	-29.504
606938.530	-35.465	-21.756	-36.359	-19.372	-68.247	3.278	0.894	-18.775
606938.538	-27.418	-11.623	-23.246	-9.835	-66.161	-2.384	2.086	-22.352
606938.546	-22.054	-10.133	-19.372	-16.689	-63.181	8.345	11.325	-13.411
606938.566	-28.312	-21.160	-30.994	-23.544	-59.307	8.345	2.682	-13.411
606938.574	-16.689	-16.391	-21.458	-12.815	-52.154	11.027	17.583	-14.901
606938.582	-31.292	-33.975	-37.551	-19.968	-61.989	18.775	8.643	-8.941
606938.590	-27.120	-27.716	-27.418	-13.113	-59.307	6.557	0.000	-17.881
606938.598	-18.477	-25.332	-19.372	-11.027	-47.982	13.411	8.345	-13.113
606938.606	-32.187	-43.809	-32.485	-28.610	-57.220	0.298	-10.729	-23.246
606938.614	-10.431	-24.140	-16.689	-8.643	-46.790	4.768	7.153	-21.756
606938.622	-19.670	-35.465	-27.418	-21.160	-43.213	16.689	2.384	-11.325
606938.630	-15.199	-33.081	-18.477	-19.670	-31.888	3.576	-2.086	-22.054
606938.638	-19.968	-47.684	-27.418	-30.696	-37.551	2.384	-3.278	-19.968
606938.646	-25.630	-48.280	-32.485	-40.233	-41.127	1.192	-13.411	-19.968
606938.654	-7.749	-24.438	-15.199	-6.557	-31.888	0.596	0.000	-25.332
606938.662	-21.756	-43.809	-29.206	-23.544	-37.253	8.345	-5.364	-20.564
606938.670	-14.305	-34.273	-22.352	-22.948	-33.081	5.960	-0.298	-22.352
606938.678	-5.066	-26.822	-16.093	-10.431	-21.160	23.246	16.689	-6.557
606938.686	-15.795	-35.167	-27.120	-18.477	-24.736	11.027	-2.384	-16.391
606938.694	-9.537	-28.908	-23.544	-15.795	-24.438	6.855	2.980	-22.650
606938.702	-25.332	-50.664	-38.445	-41.127	-33.677	13.411	-6.557	-16.093
606938.710	-9.239	-30.398	-27.418	-11.921	-22.352	-0.298	-8.345	-28.312
606938.718	-4.172	-26.226	-25.034	-7.749	-21.160	11.325	3.874	-18.775
606938.726	-16.093	-36.657	-34.571	-16.689	-25.034	7.153	-9.239	-18.179
606938.734	-2.682	-23.842	-24.438	-7.749	-16.093	10.133	5.066	-18.775
606938.742	-15.497	-37.551	-37.849	-22.054	-21.756	19.372	1.192	-11.623
606938.750	-14.901	-33.379	-32.187	-19.968	-21.160	3.576	-5.662	-24.736
606938.758	-8.643	-31.590	-26.226	-21.160	-15.199	15.795	3.576	-16.987
606938.766	-17.583	-45.896	-30.398	-35.763	-14.603	14.305	-5.960	-16.391
606938.774	-5.364	-28.312	-20.564	-25.630	-8.047	12.517	7.451	-20.266
606938.782	-13.709	-29.504	-32.485	-27.716	-13.411	20.564	1.788	-12.517
606938.787	-9.537	-22.948	-26.226	-9.537	-11.027	8.345	-5.066	-22.352
606938.795	-14.603	-30.398	-34.571	-22.352	-15.795	12.219	-4.470	-17.583
606938.803	-23.246	-41.723	-39.637	-35.167	-16.093	9.537	-16.987	-17.285
606938.811	-2.980	-17.583	-17.881	-6.258	-2.086	12.219	2.384	-18.179
606938.819	-17.285	-27.418	-32.187	-20.862	-16.093	19.968	-4.768	-14.603
606938.827	-7.153	-15.795	-18.477	-11.623	-11.325	12.517	-3.874	-19.372
606938.835	-3.576	-15.497	-13.411	-9.835	-14.603	22.948	4.470	-9.835
606938.843	-14.901	-25.630	-26.524	-22.054	-14.901	16.987	-9.239	-12.219
606938.851	-11.027	-21.756	-22.948	-19.073	-17.583	4.470	-2.682	-24.140
606938.859	-17.285	-35.465	-34.571	-28.610	-22.054	12.219	-5.960	-18.477
606938.867	-11.623	-23.246	-29.802	-17.583	-10.133	8.941	-4.470	-20.862
606938.875	-6.557	-10.431	-25.034	-7.749	-7.749	23.544	4.470	-10.729
606938.883	-18.477	-24.736	-30.100	-18.477	-17.285	13.709	-12.219	-16.987
606938.891	-5.364	-12.815	-14.901	-7.153	-15.795	13.113	2.980	-16.391
606938.899	-11.027	-19.073	-21.458	-14.603	-17.583	24.140	0.000	-5.960
606938.907	-4.172	-8.345	-14.305	-13.113	-8.643	11.325	-2.086	-18.179
606938.915	-1.192	-5.662	-15.497	-4.768	-4.470	21.160	5.662	-8.643
606938.923	-14.007	-20.862	-28.610	-16.987	-15.199	16.093	-9.835	-11.921
606938.931	-3.576	-13.709	-17.583	-5.364	-14.901	16.987	6.855	-15.199
606938.939	-11.027	-16.987	-27.716	-20.266	-22.352	25.630	5.066	-7.451
606938.947	-0.596	0.298	-11.325	-10.729	-11.921	13.411	-2.086	-16.689
606938.955	9.239	5.960	-3.278	1.788	1.192	29.206	10.133	-4.470
606938.963	-8.941	-13.411	-18.179	-11.623	-11.027	20.564	-7.749	-10.431
606938.971	-3.874	-8.643	-13.709	-2.384	-13.709	13.113	-2.086	-19.073
606938.979	-15.497	-17.881	-28.610	-19.372	-16.093	19.968	-6.855	-11.027
606938.987	-10.729	-12.219	-19.670	-16.093	-12.517	6.557	-10.133	-20.862
606938.995	-7.749	-11.325	-15.497	-13.113	-17.285	12.517	-6.258	-18.179
606939.003	-11.325	-14.901	-19.670	-18.179	-20.564	14.603	-10.133	-16.391
606939.007	-0.298	-5.960	-8.643	-4.470	-20.266	14.007	-0.894	-18.775
606939.015	-2.682	-8.345	-11.921	-21.756	-11.921	23.842	0.596	-5.960
606939.023	2.086	6.557	-5.364	-1.192	-7.153	15.497	-0.894	-12.517
606939.031	-3.278	2.980	-13.709	-2.086	-19.372	18.179	-1.192	-13.411
606939.039	-18.179	-10.729	-28.014	-12.219	-29.802	9.835	-17.583	-20.564
606939.047	1.788	10.133	-9.239	5.960	-16.093	16.391	2.384	-16.391
606939.055	-2.980	0.000	-13.709	-8.941	-19.670	31.292	3.874	-1.192
606939.063	1.490	5.960	-7.153	-2.384	-16.987	19.968	-0.596	-13.113
606939.071	1.192	3.874	-9.537	-1.192	-19.372	30.696	8.941	-7.451
606939.079	-13.709	-8.941	-21.160	-12.219	-33.081	22.650	-6.557	-11.325
606939.087	-0.596	5.364	-5.364	-4.470	-22.352	20.862	8.345	-9.537
606939.095	-8.345	-1.490	-14.603	-11.623	-23.544	24.438	-0.894	-4.470
606939.103	-0.596	11.921	-6.557	4.172	-21.756	13.709	-6.258	-15.497
606939.111	0.894	9.835	-5.066	2.086	-22.054	24.736	1.490	-7.153
606939.119	-5.662	-4.172	-16.391	-12.815	-28.610	20.862	-6.855	-7.749
606939.127	16.093	19.372	3.576	2.980	-15.199	27.418	11.921	-2.980
606939.135	0.000	2.980	-7.749	-13.113	-28.312	28.014	-1.788	-5.066
606939.143	1.788	7.749	-2.682	1.192	-26.822	10.133	-7.749	-19.073
606939.151	4.768	13.411	-0.298	8.941	-21.756	23.842	2.086	-6.855
606939.159	-6.258	6.258	-10.729	-4.172	-31.590	19.968	-4.172	-6.557
606939.167	6.258	15.497	-2.384	12.219	-28.014	18.477	7.153	-11.921
606939.175	-9.239	-2.086	-18.477	-4.470	-38.743	18.775	-7.451	-9.537
606939.183	-5.066	6.258	-12.815	-2.682	-35.167	5.066	-11.921	-19.670
606939.191	-2.384	5.960	-10.729	-5.364	-30.696	13.709	-4.470	-13.709
606939.199	-5.960	5.066	-9.239	-4.172	-26.524	16.987	-8.047	-8.643
606939.207	8.345	17.881	4.470	8.643	-22.054	28.610	13.113	-0.596
606939.215	-16.093	-1.192	-24.140	-15.497	-46.194	31.590	0.298	1.788
606939.223	-17.583	-4.768	-19.073	-9.835	-47.088	8.643	-14.007	-18.179
606939.244	1.788	10.431	-4.768	4.172	-30.398	16.093	-3.874	-11.325
606939.252	-1.490	5.364	-6.855	0.298	-29.504	13.411	-10.133	-11.623
606939.260	4.470	13.411	2.682	7.153	-31.590	14.901	4.172	-13.709
606939.268	-11.623	-0.894	-14.901	-14.603	-42.617	22.054	-4.172	-8.047
606939.276	-2.980	7.153	-3.874	-8.643	-37.551	12.219	-5.364	-17.285
606939.284	-4.172	6.855	-6.557	-7.749	-42.319	16.391	-0.894	-12.517
606939.292	-17.881	-0.894	-16.987	-16.391	-49.472	8.643	-14.603	-14.305
606939.300	-11.921	4.470	-13.411	-9.835	-43.511	10.431	-0.894	-16.093
606939.308	-25.034	-11.921	-24.438	-28.610	-53.346	15.497	-10.729	-11.623
606939.316	-16.093	-2.682	-19.372	-13.113	-53.942	2.384	-12.815	-25.630
606939.324	-13.411	-3.874	-20.266	-2.086	-52.750	15.199	0.894	-15.497
606939.332	-25.928	-16.093	-30.100	-17.583	-58.711	4.470	-14.305	-23.246
606939.340	-9.835	0.894	-14.305	-3.576	-55.134	10.431	-1.490	-22.352
606939.348	-19.073	0.000	-18.775	-11.623	-53.942	18.775	-8.941	-12.219
606939.356	-18.775	-1.490	-14.305	-6.557	-50.068	0.596	-15.199	-24.438
606939.364	-20.266	-9.835	-17.583	-16.987	-59.009	11.623	-5.960	-17.881
606939.372	-28.610	-16.689	-30.100	-21.458	-63.777	6.258	-17.583	-23.544
606939.380	-16.093	-5.066	-23.544	-13.411	-58.115	2.682	-9.835	-27.418
606939.388	-26.524	-17.285	-30.398	-18.477	-61.989	9.537	-19.372	-17.881
606939.396	-18.179	-11.921	-17.881	-19.372	-53.942	2.980	-15.497	-23.544
606939.404	-19.670	-15.497	-22.650	-23.246	-57.220	14.305	-9.239	-16.391
606939.412	-25.630	-19.073	-30.100	-14.901	-54.538	13.411	-16.391	-13.709
606939.420	-8.345	-5.960	-16.689	-2.086	-43.809	15.497	-0.298	-16.093
606939.428	-22.948	-26.226	-28.610	-23.544	-53.942	12.517	-16.689	-21.160
606939.436	-13.113	-18.477	-16.987	-12.815	-45.002	3.874	-16.093	-27.418
606939.444	-10.133	-22.352	-16.093	-9.835	-41.723	18.775	-9.239	-12.517
606939.452	-19.670	-30.100	-22.650	-19.968	-48.876	13.411	-18.775	-19.073
606939.460	-5.960	-18.179	-10.729	-9.835	-39.935	14.901	-4.768	-18.179
606939.461	-20.564	-33.975	-32.485	-28.014	-42.319	19.372	-16.689	-11.623
606939.469	-18.179	-33.975	-25.928	-26.524	-42.021	5.066	-18.775	-27.120
606939.477	-14.305	-34.571	-20.564	-29.206	-37.849	16.689	-9.835	-18.179
606939.485	-19.968	-36.657	-28.312	-31.292	-38.743	11.921	-21.160	-20.862
606939.493	-1.788	-16.987	-13.113	-8.643	-24.140	12.219	-7.153	-19.968
606939.501	-10.729	-27.120	-18.477	-21.756	-27.716	19.670	-16.391	-10.133
606939.509	-15.795	-29.802	-17.881	-25.630	-29.504	2.086	-25.928	-27.418
606939.517	-15.497	-28.014	-19.670	-22.352	-28.908	9.537	-20.266	-23.842
606939.525	-18.477	-30.398	-25.928	-28.312	-26.524	6.855	-23.842	-21.160
606939.533	-6.557	-19.968	-13.709	-16.391	-17.583	8.941	-10.729	-22.352
606939.541	-20.564	-30.994	-26.226	-28.312	-21.458	12.517	-24.140	-20.564
606939.549	-12.517	-22.948	-17.881	-17.881	-14.901	4.172	-22.352	-28.610
606939.557	-12.517	-25.928	-13.709	-22.352	-12.219	15.199	-10.729	-20.564
606939.565	-21.458	-34.869	-22.948	-33.677	-18.775	5.662	-24.736	-24.140
606939.573	17.285	3.278	14.901	8.643	3.576	5.066	-13.411	-25.630
606939.581	39.637	26.822	41.723	27.120	16.391	16.093	-16.391	-17.881
606939.589	101.328	85.831	106.394	76.592	46.790	12.815	-9.835	-21.160
606939.597	158.846	140.071	159.144	118.911	72.420	25.928	0.894	-8.643
606939.605	200.272	192.523	198.185	162.125	81.360	19.968	-9.537	-9.537
606939.613	252.724	255.108	241.995	232.458	97.156	11.325	-3.576	-21.160
606939.621	285.506	293.851	270.307	270.903	117.421	25.034	-4.768	-10.133
606939.629	319.779	335.872	302.792	309.646	132.918	21.458	2.384	-11.623
606939.637	332.892	351.071	310.242	323.653	136.793	32.485	13.113	-1.192
606939.645	328.422	352.561	303.686	323.653	132.024	28.908	4.768	-2.384
606939.653	341.535	367.165	315.905	337.064	127.852	36.359	23.544	2.086
606939.661	317.395	343.919	292.957	304.282	103.712	33.975	5.662	0.000
606939.669	316.203	344.813	292.659	307.858	112.653	22.650	3.874	-11.623
606939.677	298.023	330.210	274.181	299.811	104.606	32.187	5.364	-6.557
606939.667	272.393	308.156	243.485	292.361	94.771	28.610	-7.451	-5.662
606939.675	264.943	294.745	227.094	286.996	87.023	40.531	16.391	3.278
606939.683	233.352	261.664	193.417	240.505	69.737	44.405	11.623	11.027
606939.691	210.702	233.948	174.046	203.848	62.585	29.504	6.258	-2.086
606939.699	184.476	200.272	149.906	177.920	46.492	38.147	10.431	3.278
606939.707	148.714	164.211	120.699	128.150	25.928	24.140	-8.047	-7.749
606939.715	134.408	157.058	82.552	138.581	6.855	18.775	-1.788	-11.921
606939.723	111.163	122.190	81.360	109.971	8.643	14.305	-17.881	-15.199
606939.731	102.520	102.818	122.190	87.917	30.398	0.894	-25.332	-30.398
606939.739	77.188	76.592	85.533	63.479	23.544	9.835	-21.756	-22.650
606939.747	47.088	49.174	39.339	30.100	3.278	6.855	-28.908	-21.756
606939.755	55.730	56.326	45.300	37.849	-1.192	11.921	-9.239	-18.775
606939.763	31.888	35.465	26.226	20.862	-6.258	12.219	-23.544	-16.689
606939.771	26.822	31.888	25.928	24.140	-3.576	0.894	-18.179	-28.610
606939.779	18.179	21.756	16.987	12.219	-8.643	14.603	-5.960	-16.689
606939.787	2.384	8.941	1.490	1.788	-18.775	11.027	-16.689	-20.862
606939.795	-2.384	5.662	-2.384	10.729	-22.650	8.047	-9.537	-24.736
606939.803	-23.544	-16.093	-22.054	-15.795	-36.061	12.517	-19.670	-19.073
606939.811	-18.477	-7.749	-16.689	-13.113	-32.485	2.384	-14.901	-26.226
606939.819	-31.590	-14.901	-38.743	-13.709	-42.617	8.345	-11.921	-22.054
606939.827	-47.982	-32.187	-45.598	-27.418	-53.048	1.788	-28.014	-28.908
606939.835	-34.869	-19.073	-24.140	-17.583	-44.703	6.557	-13.709	-24.736
606939.843	-47.684	-31.292	-36.955	-32.783	-52.750	10.729	-21.458	-17.583
606939.851	-44.405	-31.888	-34.273	-28.014	-49.770	0.894	-19.670	-26.524
606939.859	-56.326	-50.366	-46.790	-53.048	-60.201	8.047	-16.987	-24.736
606939.867	-69.141	-52.452	-57.518	-60.797	-77.188	1.192	-32.485	-28.312
606939.875	-59.009	-36.657	-47.684	-32.485	-75.102	0.000	-22.948	-31.888
606939.883	-67.949	-45.300	-63.777	-37.551	-72.122	3.576	-32.187	-26.822
606939.891	-52.452	-30.696	-47.386	-22.054	-62.585	0.298	-24.140	-28.610
606939.899	-55.134	-37.849	-48.578	-36.359	-69.737	9.835	-17.881	-20.862
606939.907	-72.420	-57.817	-59.903	-64.075	-80.168	-3.576	-38.147	-33.677
606939.915	-58.115	-41.425	-45.896	-42.319	-70.035	-5.960	-26.226	-36.359
606939.922	-66.459	-49.472	-56.624	-46.492	-73.016	2.086	-29.802	-26.226
606939.930	-59.903	-35.167	-48.578	-40.531	-70.632	-2.980	-27.716	-26.226
606939.938	-60.499	-39.339	-49.174	-42.617	-76.890	5.364	-26.226	-20.266
606939.946	-66.161	-47.982	-56.028	-44.703	-88.811	0.596	-40.829	-23.544
606939.954	-51.856	-27.716	-45.300	-25.034	-73.910	1.490	-31.292	-24.140
606939.962	-59.903	-34.869	-42.319	-33.081	-64.373	11.027	-37.551	-14.603
606939.970	-54.836	-32.783	-33.677	-39.637	-62.585	2.682	-33.975	-23.842
606939.978	-60.201	-40.233	-43.213	-47.088	-71.526	7.451	-33.379	-21.756
606939.986	-68.247	-41.723	-52.452	-43.511	-80.764	-2.384	-46.492	-28.312
606939.994	-47.088	-19.968	-30.696	-16.689	-65.267	8.643	-23.544	-16.689
606940.002	-69.141	-46.194	-46.790	-50.366	-81.956	12.517	-36.061	-12.815
606940.010	-68.247	-42.319	-48.876	-55.730	-88.811	-8.047	-43.809	-32.783
606940.018	-61.989	-35.763	-48.280	-32.783	-87.619	0.298	-40.531	-28.908
606940.026	-69.439	-41.127	-53.048	-32.783	-80.466	-3.278	-50.068	-31.590
606940.034	-55.432	-30.100	-34.869	-28.014	-68.843	-2.682	-37.253	-26.524
606940.042	-70.035	-47.684	-48.578	-56.326	-77.486	-0.596	-47.982	-23.842
606940.050	-56.326	-28.908	-37.849	-38.147	-76.890	-2.384	-41.127	-26.524
606940.058	-48.578	-23.544	-36.657	-29.504	-71.526	8.345	-33.081	-17.881
606940.066	-52.750	-26.822	-37.849	-31.888	-71.526	-0.894	-45.598	-23.246
606940.074	-47.982	-19.670	-31.292	-25.332	-77.188	-5.066	-36.955	-28.908
606940.082	-68.247	-42.021	-50.962	-42.021	-84.937	-4.172	-49.770	-26.226
606940.090	-58.115	-33.081	-37.551	-30.994	-72.122	-11.027	-48.578	-35.763
606940.098	-50.962	-26.822	-33.379	-30.696	-67.651	8.047	-31.292	-20.266
606940.106	-62.883	-39.041	-42.319	-56.922	-73.612	-0.894	-43.213	-24.438
606940.114	-54.240	-26.524	-29.802	-35.167	-69.141	-7.153	-38.147	-31.292
606940.122	-54.836	-24.438	-31.590	-17.583	-66.757	5.364	-41.127	-19.073
606940.130	-46.194	-15.795	-28.014	-14.007	-69.141	-6.557	-43.809	-28.908
606940.138	-50.366	-21.160	-36.955	-22.650	-67.949	1.788	-39.637	-20.564
606940.160	-62.287	-37.551	-43.511	-40.531	-70.930	-8.345	-51.856	-29.504
606940.168	-46.790	-25.630	-22.352	-23.544	-68.545	1.490	-30.100	-22.948
606940.176	-56.624	-33.975	-33.081	-39.935	-75.102	11.027	-36.955	-13.709
606940.184	-45.598	-16.391	-28.014	-19.372	-60.797	-6.258	-38.743	-28.908
606940.192	-40.829	-18.179	-28.610	-13.411	-58.711	4.470	-30.696	-18.477
606940.200	-51.260	-31.292	-32.783	-30.994	-68.843	-2.980	-42.319	-22.650
606940.208	-41.723	-18.179	-25.630	-20.564	-61.989	-1.788	-31.590	-24.438
606940.216	-58.115	-37.551	-44.703	-38.445	-73.910	-0.596	-47.982	-24.438
606940.224	-41.127	-25.928	-24.736	-19.372	-62.287	-6.258	-43.809	-27.716
606940.232	-37.849	-33.975	-27.716	-29.802	-62.585	6.557	-31.292	-16.391
606940.240	-43.809	-40.829	-34.869	-30.994	-58.115	3.874	-33.975	-16.391
606940.248	-27.716	-26.226	-17.881	-14.603	-36.955	4.470	-24.438	-20.266
606940.256	-43.213	-44.703	-32.783	-32.783	-51.558	1.192	-44.703	-20.266
606940.264	-39.935	-41.127	-31.292	-27.120	-47.684	-11.325	-42.021	-31.590
606940.272	-47.088	-53.644	-42.915	-31.888	-53.048	-9.537	-41.425	-28.908
606940.280	-47.684	-54.240	-41.723	-33.081	-52.750	-11.027	-47.982	-27.120
606940.288	-30.994	-39.339	-25.928	-30.696	-31.590	-2.682	-26.226	-21.756
606940.296	-43.809	-53.048	-41.723	-52.452	-37.849	0.596	-34.273	-15.497
606940.304	-37.849	-43.809	-33.677	-36.955	-31.590	-13.411	-38.743	-28.312
606940.312	-39.041	-47.386	-33.677	-30.696	-28.908	-8.345	-36.657	-24.438
606940.320	-47.982	-53.942	-38.147	-36.061	-29.504	-14.901	-52.750	-30.696
606940.328	-34.869	-44.107	-30.398	-23.246	-20.862	-8.047	-34.273	-28.610
606940.336	-48.280	-57.220	-44.107	-43.511	-29.206	-6.557	-41.127	-21.458
606940.344	-44.107	-53.644	-38.147	-38.743	-25.928	-16.987	-39.637	-32.187
606940.352	-31.292	-36.359	-28.610	-29.206	-11.623	-12.815	-41.723	-28.908
606940.360	-32.485	-35.763	-26.524	-31.292	-3.278	-17.285	-51.260	-31.888
606940.368	-23.544	-33.081	-17.583	-24.140	2.682	-10.133	-31.590	-30.100
606940.376	-36.955	-48.578	-26.822	-46.194	-6.258	-2.980	-35.763	-20.862
606940.381	-33.677	-39.637	-25.034	-42.319	-9.537	-14.305	-36.657	-28.908
606940.389	-40.829	-45.896	-44.107	-43.511	-11.325	-16.689	-42.319	-30.398
606940.397	-39.637	-44.107	-37.551	-39.339	-1.788	-23.842	-50.962	-36.359
606940.405	-27.120	-29.206	-28.014	-19.073	5.662	-26.524	-39.637	-39.339
606940.413	-52.154	-53.048	-50.664	-43.511	-9.835	-25.630	-55.432	-37.551
606940.421	-41.425	-41.723	-36.359	-36.061	-8.345	-25.034	-47.088	-38.743
606940.429	-33.081	-35.167	-28.014	-31.292	0.596	-4.768	-33.975	-22.054
606940.437	-42.021	-40.233	-40.233	-35.763	2.384	-15.199	-45.896	-29.206
606940.445	-33.975	-34.571	-31.888	-31.292	1.490	-16.689	-35.763	-33.677
606940.453	-48.578	-48.876	-50.664	-53.644	-11.027	-7.749	-39.637	-21.756
606940.461	-38.147	-32.187	-43.809	-36.359	-4.768	-18.179	-33.677	-29.802
606940.469	-40.829	-33.379	-39.637	-36.061	0.000	-16.689	-33.975	-29.802
606940.477	-50.366	-39.637	-41.723	-45.598	0.000	-26.226	-49.174	-36.359
606940.485	-37.253	-32.783	-30.994	-37.253	2.682	-19.073	-34.273	-34.869
606940.493	-47.386	-44.703	-45.300	-43.511	-3.874	-12.517	-40.233	-25.034
606940.501	-31.590	-29.504	-35.167	-25.928	8.047	-19.073	-32.187	-28.610
606940.509	-36.359	-35.167	-37.849	-39.339	4.172	-14.007	-32.187	-24.438
606940.517	-49.174	-40.531	-40.233	-46.790	-5.066	-25.332	-48.578	-31.888
606940.525	-34.273	-22.948	-31.888	-34.273	1.192	-21.458	-33.081	-29.504
606940.533	-40.829	-34.869	-42.915	-46.492	2.086	-11.027	-35.465	-17.583
606940.541	-29.802	-26.822	-21.756	-17.881	9.537	-16.391	-29.206	-23.246
606940.549	-35.167	-30.994	-25.928	-26.226	8.345	-13.709	-33.379	-23.842
606940.557	-45.598	-38.147	-36.359	-39.637	-0.596	-23.246	-49.174	-32.485
606940.565	-30.398	-17.583	-23.246	-29.802	4.768	-21.458	-32.187	-30.398
606940.573	-37.253	-29.206	-28.312	-37.253	5.960	-11.027	-36.359	-18.179
606940.581	-27.716	-22.948	-19.670	-33.975	14.901	-10.729	-22.352	-16.689
606940.589	-32.187	-30.100	-26.226	-55.730	2.980	-1.490	-18.179	-11.027
606940.597	-44.703	-31.590	-41.127	-40.829	-2.682	-21.160	-41.425	-26.822
606940.602	-29.504	-11.921	-24.736	-5.066	10.133	-18.477	-30.100	-26.822
606940.610	-36.359	-26.226	-30.100	-19.968	5.066	-7.153	-30.696	-14.901
606940.618	-36.359	-24.140	-25.034	-24.736	-5.066	-19.670	-33.379	-25.928
606940.626	-39.935	-29.504	-31.590	-45.896	-7.153	-16.391	-36.359	-24.736
606940.634	-44.405	-31.292	-35.167	-51.260	-2.086	-20.266	-42.021	-24.140
606940.642	-35.465	-21.160	-30.398	-28.312	1.788	-15.497	-25.630	-21.458
606940.650	-52.154	-34.273	-46.194	-45.300	-12.517	-11.325	-34.869	-18.775
606940.658	-40.531	-22.352	-32.783	-44.405	-8.047	-18.775	-30.994	-26.226
606940.666	-30.696	-19.073	-27.716	-27.716	-5.066	-5.662	-22.054	-10.729
606940.674	-42.319	-25.630	-37.849	-23.246	-13.113	-16.093	-36.955	-16.987
606940.682	-32.485	-9.835	-27.716	-18.477	-2.086	-12.815	-22.650	-16.391
606940.690	-37.849	-18.775	-32.187	-32.187	-0.596	-2.384	-24.736	-7.749
606940.698	-28.014	-11.623	-18.775	-26.822	2.682	-16.689	-24.438	-21.458
606940.706	-27.418	-12.219	-17.285	-18.775	-1.788	-5.364	-15.199	-10.729
606940.714	-35.465	-11.921	-19.968	-23.842	-14.603	-7.749	-23.544	-11.921
606940.722	-18.775	2.682	-6.557	-11.325	-0.894	-4.172	-9.835	-9.537
606940.730	-31.292	-9.537	-19.073	-23.544	-6.557	-2.980	-25.630	-7.749
606940.738	-24.438	-1.192	-10.431	-13.709	0.894	-9.835	-19.670	-13.113
606940.746	-30.398	-9.537	-18.775	-33.379	-4.172	3.576	-11.623	-2.086
606940.754	-32.187	-8.643	-20.862	-34.273	-4.470	-0.298	-19.372	-4.172
606940.762	-22.948	3.874	-12.219	-4.470	-5.662	-6.258	-15.497	-10.431
606940.770	-36.955	-11.027	-27.418	-14.603	-16.391	-8.345	-28.908	-11.325
606940.778	-26.524	0.000	-11.027	-5.662	-9.537	-9.835	-19.372	-15.497
606940.786	-28.014	-2.980	-9.835	-16.689	-11.027	0.596	-13.411	-6.557
606940.794	-33.677	-7.451	-15.497	-25.630	-12.219	-8.941	-24.140	-11.027
606940.802	-22.352	-0.298	-3.278	-11.921	-6.855	-1.788	-8.345	-7.153
606940.810	-41.723	-20.266	-23.544	-42.915	-16.987	0.596	-20.266	-5.066
606940.818	-33.081	-1.788	-19.372	-21.160	-12.219	-9.835	-14.305	-15.795
606940.825	-32.783	-6.258	-22.948	-11.921	-13.709	-3.874	-15.199	-8.941
606940.833	-33.677	-6.557	-18.775	-11.623	-15.497	-9.239	-24.140	-8.047
606940.841	-17.881	9.537	-1.192	-2.384	-13.411	-4.768	-8.047	-8.643
606940.849	-23.842	5.662	-5.662	-14.305	-17.583	2.384	-12.517	-0.596
606940.857	-16.391	13.709	4.172	0.000	-10.729	-7.153	-10.431	-7.153
606940.865	-26.822	2.682	-7.749	-12.815	-18.775	-3.278	-17.583	-6.557
606940.873	-37.253	-4.768	-20.862	-18.179	-24.438	-19.073	-33.975	-17.285
606940.881	-20.564	10.431	-7.153	-5.662	-15.497	-19.968	-20.564	-20.564
606940.889	-40.233	-7.153	-20.564	-25.034	-28.014	-15.795	-30.696	-19.968
606940.897	-36.061	-5.066	-21.756	-23.246	-29.206	-26.524	-28.014	-30.398
606940.905	-31.590	-3.874	-19.372	-21.458	-28.610	-8.643	-17.583	-13.113
606940.913	-30.994	-1.490	-16.391	-18.179	-27.716	-5.960	-20.862	-8.941
606940.921	-13.709	14.901	-2.086	-0.894	-10.133	1.788	-6.855	-2.384
606940.929	-31.292	-0.894	-16.987	-14.901	-24.140	-1.192	-23.842	-3.278
606940.937	-29.504	-0.596	-11.027	-11.921	-29.802	-16.093	-22.650	-16.689
606940.945	-45.896	-21.756	-31.888	-25.034	-47.684	-19.670	-28.610	-20.862
606940.953	-45.300	-14.305	-25.928	-29.802	-42.021	-29.802	-40.531	-26.822
606940.961	-23.246	10.431	-4.470	-6.557	-24.140	-19.670	-20.862	-19.372
606940.969	-37.849	-7.749	-21.458	-17.583	-35.465	-14.603	-33.081	-14.603
606940.977	-35.763	-7.451	-19.670	-15.795	-40.829	-28.014	-33.081	-25.034
606940.985	-45.896	-17.583	-30.398	-35.167	-47.088	-21.756	-33.081	-22.054
606940.993	-53.048	-24.736	-37.253	-39.637	-45.300	-30.696	-42.021	-28.014
606941.001	-36.061	-5.662	-23.544	-17.583	-35.167	-23.842	-23.544	-22.948
606941.009	-44.703	-17.285	-28.014	-36.657	-42.021	-12.219	-28.610	-11.623
606941.017	-36.359	-9.239	-14.901	-30.100	-44.703	-25.034	-29.206	-22.650
606941.025	-31.888	-6.855	-17.285	-10.729	-37.551	-12.517	-21.756	-10.133
606941.033	-42.617	-12.517	-28.014	-17.285	-43.213	-23.544	-34.273	-17.285
606941.041	-31.292	-6.855	-13.113	-11.027	-31.292	-22.948	-22.054	-18.775
606941.046	-46.492	-27.716	-28.312	-33.379	-39.339	-19.670	-32.783	-20.862
606941.054	-38.743	-19.073	-24.736	-22.650	-36.657	-25.034	-27.716	-24.438
606941.062	-37.551	-26.226	-26.822	-25.928	-35.763	-6.557	-18.775	-6.855
606941.070	-43.511	-34.273	-31.590	-31.590	-44.405	-14.901	-33.975	-14.305
606941.078	-30.100	-18.775	-19.968	-22.352	-37.253	-19.372	-24.736	-21.458
606941.086	-43.213	-39.041	-35.167	-38.743	-39.935	-17.583	-34.571	-18.179
606941.094	-32.485	-35.763	-30.100	-26.524	-33.081	-19.968	-25.034	-21.756
606941.102	-34.273	-35.763	-36.061	-27.716	-35.167	-8.941	-20.862	-12.219
606941.110	-38.445	-38.147	-30.696	-25.928	-30.696	-17.583	-33.379	-17.285
606941.118	-25.034	-25.332	-17.881	-16.391	-19.670	-17.583	-22.650	-19.968
606941.126	-34.869	-38.147	-31.292	-25.928	-25.630	-8.941	-23.842	-9.835
606941.134	-27.120	-31.292	-24.438	-16.391	-19.670	-13.113	-18.477	-15.795
606941.142	-30.994	-36.061	-28.014	-29.802	-17.285	-5.662	-17.285	-7.749
606941.150	-33.081	-37.551	-29.504	-25.630	-14.007	-11.325	-25.630	-9.835
606941.158	-13.709	-20.862	-13.709	-13.709	-2.682	-3.874	-8.047	-5.960
606941.166	-24.736	-28.610	-24.438	-31.888	-11.325	-1.192	-16.391	-0.894
606941.174	-16.689	-20.564	-14.007	-25.332	5.662	-11.325	-10.431	-12.219
606941.182	-24.736	-35.167	-21.458	-25.630	0.596	-5.364	-13.709	-6.855
606941.190	-37.551	-41.723	-36.657	-22.650	-14.603	-24.736	-35.167	-22.352
606941.198	-24.140	-26.226	-27.120	-10.431	-1.490	-22.650	-22.948	-21.160
606941.206	-31.590	-34.273	-35.167	-30.398	4.768	-13.709	-26.822	-9.835
606941.214	-22.352	-27.120	-25.034	-22.650	5.662	-21.160	-22.352	-19.073
606941.222	-19.670	-33.975	-16.987	-29.802	12.219	-3.874	-12.219	-6.557
606941.230	-29.206	-33.975	-23.544	-28.014	6.557	-12.517	-23.246	-12.815
606941.238	-15.795	-22.054	-15.795	-14.603	11.623	-12.815	-13.709	-14.603
606941.246	-26.822	-34.869	-28.014	-30.696	4.768	-11.623	-23.842	-10.729
606941.254	-18.775	-17.285	-16.093	-12.219	17.583	-16.689	-18.179	-12.517
606941.262	-28.312	-25.034	-26.524	-23.246	13.411	-13.113	-22.352	-10.133
606941.284	-31.590	-31.888	-27.120	-25.034	12.219	-15.795	-28.610	-10.729
606941.292	-14.901	-19.073	-13.411	-18.179	22.650	-9.537	-11.921	-7.451
606941.300	-32.187	-29.802	-33.379	-33.677	6.855	-8.345	-26.524	-7.153
606941.308	-19.372	-12.517	-14.901	-16.093	16.689	-8.047	-15.795	-9.239
606941.316	-27.120	-23.842	-23.544	-28.610	12.815	-1.788	-16.689	-5.364
606941.324	-33.677	-27.716	-29.504	-33.379	6.258	-11.325	-28.908	-10.729
606941.332	-16.391	-10.431	-13.113	-18.477	15.497	-6.557	-11.027	-5.960
606941.340	-32.485	-27.716	-32.485	-30.398	11.921	-7.153	-20.266	-4.172
606941.348	-25.034	-22.948	-22.054	-18.775	16.093	-14.603	-18.179	-13.113
606941.356	-31.292	-28.014	-28.312	-23.246	9.239	-3.874	-16.689	-5.662
606941.364	-37.551	-27.418	-32.783	-28.014	6.557	-11.623	-24.736	-9.537
606941.372	-19.670	-6.557	-11.921	-14.305	14.305	-4.768	-9.239	-5.364
606941.380	-27.120	-22.650	-20.266	-25.034	8.941	7.153	-9.537	6.258
606941.388	-27.716	-16.987	-22.352	-30.696	2.980	-0.596	-0.298	2.086
606941.396	-33.081	-24.438	-26.524	-34.869	8.047	8.643	-1.192	10.729
606941.404	-21.160	-11.027	-10.431	-13.709	23.246	-0.894	-15.795	3.874
606941.412	-2.086	10.729	4.768	7.153	28.610	-1.788	-2.384	-0.596
606941.420	-20.862	-7.153	-15.199	-11.325	20.266	-3.278	-16.093	-0.894
606941.428	-18.477	-10.431	-11.623	-16.689	16.689	-18.179	-17.583	-11.921
606941.436	-24.438	-22.352	-19.073	-33.677	8.643	-6.855	-12.517	-3.576
606941.444	-26.524	-15.199	-20.266	-36.955	9.835	-12.815	-21.160	-5.066
606941.452	-13.411	-1.192	-8.047	-20.564	17.583	-14.007	-11.027	-7.153
606941.460	-23.544	-11.325	-17.285	-25.034	8.941	-3.874	-15.795	2.384
606941.468	-22.054	-6.557	-13.113	-12.517	7.153	-11.027	-13.113	-4.470
606941.476	-28.014	-13.709	-26.226	-22.054	2.980	-6.557	-14.305	-1.788
606941.484	-35.465	-23.544	-28.312	-38.147	-1.192	-15.795	-23.246	-8.941
606941.492	-13.113	-5.066	-8.047	-19.372	12.219	-8.345	-3.278	-3.278
606941.500	-22.054	-8.047	-23.246	-17.881	11.027	-1.490	-10.431	3.874
606941.505	-19.372	-2.086	-18.477	-11.325	10.431	-9.537	-6.258	-2.980
606941.513	-36.657	-25.630	-32.783	-36.061	-3.874	-11.027	-15.497	-4.768
606941.521	-42.617	-25.332	-43.511	-36.359	-14.603	-20.266	-29.802	-11.325
606941.529	-24.438	-7.451	-27.716	-19.670	-4.172	-15.199	-16.093	-8.345
606941.537	-33.677	-16.093	-37.253	-31.888	-0.894	-10.729	-24.140	-2.980
606941.545	-22.650	-1.192	-22.948	-20.564	2.980	-10.729	-11.623	-5.960
606941.553	-25.034	-8.941	-29.206	-18.477	-2.980	2.384	-2.682	5.066
606941.561	-28.312	-11.325	-31.590	-30.398	0.894	-3.874	-9.537	4.470
606941.569	-19.968	2.086	-23.842	-19.073	3.874	-8.345	-5.066	0.596
606941.577	-26.822	-1.192	-27.120	-19.670	-5.066	-6.258	-16.391	4.172
606941.585	-18.477	4.768	-21.160	-3.278	-2.384	-15.497	-14.007	-6.557
606941.593	-24.736	-2.980	-31.888	-14.007	-3.278	-4.768	-10.431	-1.192
