Timestamp	AFz	AF3	AF4	AF7	AF8	Pz	P3	P4	2023-07-21 14:47:47.751	fs=125
263583.941	56.028	67.651	73.612	24.140	53.346	-14.603	-27.418	-10.133
263583.949	56.624	75.996	73.314	29.504	50.664	-13.411	-18.775	-16.391
263583.957	2.086	23.544	18.477	-28.014	9.835	-47.684	-62.883	-46.790
263583.965	63.181	81.658	82.254	37.849	66.161	8.941	4.470	14.305
263583.973	49.174	67.055	63.479	22.650	45.896	0.000	-14.603	-1.192
263583.981	30.994	50.366	44.107	2.682	33.081	-16.391	-38.147	-18.179
263583.989	106.394	130.534	114.739	92.089	104.904	66.459	63.777	68.545
263583.997	22.650	47.386	26.226	1.490	21.458	-3.576	-16.093	4.172
263584.005	42.915	65.565	48.280	18.179	39.041	-0.596	-8.941	1.788
263584.013	45.598	64.969	61.393	27.418	42.915	4.768	-3.874	5.066
263584.021	42.617	64.075	56.028	23.544	48.578	1.788	-7.749	8.941
263584.029	66.757	88.513	82.850	48.876	68.545	17.583	13.113	20.564
263584.037	21.160	43.809	37.253	2.384	23.544	-15.497	-32.783	-16.689
263584.045	79.870	104.904	90.897	63.777	80.764	47.088	42.915	53.346
263584.053	56.028	79.870	71.526	39.339	61.691	11.623	8.643	25.332
263584.061	31.292	56.326	50.068	13.411	34.571	-22.054	-30.994	-2.384
263584.069	92.089	119.507	103.414	73.612	91.493	46.194	47.386	67.949
263584.077	21.160	49.174	27.418	4.768	26.524	-10.431	-17.583	5.662
263584.085	54.836	81.956	64.075	38.147	66.161	9.239	12.815	24.140
263584.093	30.398	57.817	39.935	15.199	42.319	1.788	-2.384	18.179
263584.101	20.564	49.174	29.504	9.239	27.418	8.643	-1.490	34.273
263584.109	65.565	90.599	72.420	50.962	61.989	46.492	47.982	65.863
263584.117	23.842	48.876	31.590	7.153	32.187	8.643	2.384	25.034
263584.125	66.459	91.791	76.592	53.346	72.420	36.061	34.869	54.538
263584.133	51.558	78.380	60.797	34.571	59.009	28.908	22.352	42.617
263584.141	50.068	74.506	66.161	24.140	56.326	29.206	21.160	48.876
263584.149	99.838	126.660	106.692	87.321	94.175	71.824	77.188	90.301
263584.157	36.061	59.605	35.167	28.014	33.677	12.517	6.258	38.445
263584.176	59.307	84.937	58.413	52.154	49.770	21.756	28.610	39.041
263584.184	16.391	45.300	10.729	9.835	8.345	-9.537	-5.364	2.682
263584.192	30.696	57.220	27.418	21.756	30.696	4.470	9.239	26.226
263584.200	71.228	97.454	66.757	51.558	64.373	39.339	52.154	60.201
263584.208	16.689	39.935	11.623	-2.980	6.557	0.894	1.788	23.544
263584.216	55.134	81.658	46.790	38.743	42.319	31.888	45.598	53.048
263584.224	41.127	71.526	28.610	39.637	34.273	28.908	36.955	45.896
263584.232	38.445	69.439	19.372	49.770	24.140	26.524	36.657	47.088
263584.240	60.797	93.281	40.829	64.671	39.637	39.637	56.028	59.605
263584.248	-1.490	30.994	-27.716	-0.596	-19.372	-8.643	-2.086	9.537
263584.256	54.836	88.215	28.908	56.028	36.359	39.339	57.220	56.624
263584.264	45.598	78.976	21.756	45.598	33.081	50.366	63.479	76.592
263584.272	-15.199	21.160	-41.127	-12.219	-28.610	-11.325	7.153	0.298
263584.280	40.829	75.698	5.066	37.849	16.093	42.021	68.247	57.220
263584.288	-22.352	14.901	-56.624	-21.160	-41.723	-4.172	9.239	15.199
263584.296	42.617	82.850	20.564	49.472	31.888	42.021	68.843	60.499
263584.304	11.325	50.366	-14.901	10.729	2.384	29.802	47.386	49.472
263584.312	-9.239	24.140	-46.194	-13.709	-27.120	9.835	22.948	38.147
263584.320	36.061	68.247	-6.258	33.975	17.583	44.405	71.526	66.757
263584.328	-33.677	-1.788	-72.122	-39.637	-47.982	-9.239	3.278	19.372
263584.336	11.325	48.578	-28.610	10.729	-14.603	28.014	50.962	63.777
263584.344	-32.783	1.192	-63.479	-40.233	-50.366	-5.066	12.517	26.524
263584.352	-48.876	-20.564	-77.188	-65.863	-49.174	-17.285	1.788	18.477
263584.360	-15.497	19.073	-62.883	-23.246	-35.763	35.167	63.479	72.718
263584.368	-77.486	-45.896	-122.190	-91.195	-99.242	-22.054	-7.153	13.709
263584.376	14.007	45.002	-31.590	5.364	-11.623	43.511	70.333	81.956
263584.384	-19.670	8.643	-69.439	-39.935	-30.994	11.623	33.677	40.829
263584.392	-55.730	-28.610	-98.944	-86.725	-65.267	-11.921	6.855	16.987
263584.399	-33.677	2.086	-89.109	-47.982	-79.274	12.815	40.233	46.194
263584.407	-85.533	-51.558	-139.773	-98.944	-116.229	-36.657	-11.623	-7.749
263584.415	-8.941	19.968	-58.711	-33.379	-30.398	14.603	45.002	56.624
263584.423	-18.775	11.027	-74.804	-49.770	-54.240	8.643	27.120	52.154
263584.431	-43.511	-14.007	-99.838	-76.294	-70.333	-16.987	-0.298	21.458
263584.439	-9.239	22.948	-73.910	-38.147	-52.452	22.352	51.856	55.730
263584.447	-38.743	-5.364	-104.308	-66.757	-84.043	-2.086	18.477	32.187
263584.455	2.384	34.273	-65.267	-33.677	-45.896	10.431	38.147	54.240
263584.463	-44.405	-13.411	-110.567	-83.447	-93.877	-32.485	-11.027	8.941
263584.471	-22.948	7.749	-82.254	-59.307	-65.267	-5.662	15.199	41.425
263584.479	34.273	66.161	-36.061	2.384	-19.670	31.888	67.949	63.181
263584.487	-11.027	20.862	-84.043	-46.790	-66.161	-13.113	0.894	23.246
263584.495	14.901	51.558	-61.095	-16.391	-54.836	7.153	35.167	47.088
263584.503	-22.650	10.133	-104.010	-60.201	-87.917	-32.485	-4.768	-3.874
263584.511	-3.278	28.610	-79.572	-41.127	-66.757	-27.120	-6.258	13.411
263584.519	52.452	86.427	-19.670	14.901	-10.431	19.968	52.452	64.373
263584.527	-13.113	19.372	-84.341	-50.366	-78.678	-34.869	-11.921	17.285
263584.535	20.564	51.558	-58.115	-21.160	-59.307	-9.537	30.100	36.955
263584.543	-23.842	12.517	-114.739	-63.777	-119.507	-47.386	-17.583	-12.815
263584.551	0.894	31.590	-78.678	-42.021	-65.267	-34.273	-5.662	16.689
263584.559	25.034	53.942	-51.260	-22.054	-46.790	-24.736	10.133	25.332
263584.567	-30.696	-2.682	-109.375	-78.380	-111.759	-57.518	-30.696	-11.921
263584.575	31.590	61.393	-62.585	-17.881	-64.373	-21.458	11.325	26.822
263584.583	11.921	40.531	-75.400	-41.425	-83.447	-62.883	-30.994	-29.206
263584.591	22.650	50.366	-55.134	-27.120	-68.843	-49.472	-29.206	-0.596
263584.599	44.703	73.910	-39.935	-4.768	-55.432	-30.398	6.557	24.140
263584.607	3.874	29.504	-86.427	-55.730	-92.387	-59.307	-25.034	-10.133
263584.615	59.605	87.619	-25.332	3.874	-36.955	-36.061	-12.219	6.557
263584.618	4.768	32.783	-84.639	-55.730	-107.288	-48.578	-28.014	2.980
263584.626	27.120	50.664	-57.518	-46.790	-68.545	-43.511	-15.199	-4.768
263584.634	82.850	108.778	-8.643	26.524	-30.994	-8.941	22.650	36.359
263584.642	-14.603	13.411	-119.209	-64.671	-136.197	-100.434	-72.718	-69.737
263584.650	78.976	113.249	-24.140	20.266	-42.915	-39.339	-2.980	0.596
263584.658	63.777	100.732	-48.876	5.364	-51.856	-50.068	-19.073	-11.027
263584.666	28.312	63.777	-88.513	-36.955	-99.838	-84.639	-63.181	-41.127
263584.674	93.579	125.170	-11.027	18.775	-30.696	-42.617	-10.133	6.557
263584.682	49.472	84.639	-64.075	-16.689	-97.752	-81.360	-58.115	-38.445
263584.690	90.599	125.468	-22.054	26.226	-42.319	-68.843	-33.081	-35.763
263584.698	78.976	117.421	-42.319	13.113	-67.055	-65.863	-38.147	-42.021
263584.706	73.314	111.759	-45.598	5.066	-71.228	-75.698	-50.664	-43.511
263584.714	99.838	136.495	-9.537	26.226	-37.849	-69.439	-27.120	-48.876
263584.722	50.962	84.639	-58.115	-26.822	-90.897	-121.295	-110.269	-85.533
263584.730	131.130	163.019	24.140	59.307	-1.490	-61.095	-39.339	-19.968
263584.738	99.838	135.899	-9.239	36.061	-56.028	-79.572	-48.578	-44.405
263584.746	70.333	102.818	-32.485	2.980	-79.274	-114.143	-87.619	-79.870
263584.754	144.541	171.065	31.590	73.612	-5.662	-49.174	-14.603	-17.583
263584.762	101.030	124.276	-16.987	25.332	-53.942	-91.195	-71.824	-67.651
263584.770	132.620	151.396	29.802	53.048	-17.881	-72.718	-45.598	-49.472
263584.778	92.685	113.249	-3.278	11.921	-57.220	-97.156	-76.890	-72.718
263584.786	92.387	119.805	-3.874	29.504	-60.797	-100.434	-79.870	-78.380
263584.794	143.051	168.681	60.797	76.294	6.258	-45.896	-14.603	-23.246
263584.802	85.831	111.461	5.960	17.583	-59.009	-87.619	-70.035	-61.393
263584.810	140.369	163.019	65.565	68.545	4.470	-56.922	-29.504	-33.379
263584.818	95.963	118.017	16.987	22.948	-50.068	-79.274	-65.267	-59.605
263584.826	100.434	123.680	30.398	32.783	-37.551	-81.062	-70.632	-46.492
263584.834	147.223	171.661	80.168	80.466	4.172	-42.617	-17.583	-14.305
263584.857	71.824	86.725	3.278	-0.596	-61.989	-112.057	-97.156	-89.109
263584.865	158.846	173.151	92.089	87.917	21.458	-38.445	-2.980	-22.948
263584.873	113.249	128.746	52.452	34.869	-31.292	-48.280	-20.266	-24.140
263584.881	72.420	92.387	5.960	11.325	-75.996	-110.269	-89.109	-88.811
263584.889	137.687	154.376	76.294	74.506	6.258	-78.976	-52.452	-53.346
263584.897	103.414	121.891	53.346	43.511	-41.425	-96.262	-83.745	-60.201
263584.905	178.218	193.417	135.005	114.441	44.703	-34.571	-8.047	-6.855
263584.913	110.567	126.660	62.287	47.982	-30.994	-90.003	-65.565	-72.122
263584.921	109.673	123.084	66.161	42.319	-21.160	-99.838	-83.745	-71.526
263584.929	126.064	139.773	85.831	56.624	-6.557	-85.533	-56.624	-65.565
263584.937	56.922	70.930	17.285	-11.623	-88.215	-142.157	-126.660	-121.295
263584.945	151.098	163.615	123.978	81.062	23.842	-59.903	-33.081	-28.312
263584.953	142.455	155.866	118.017	72.122	12.219	-62.287	-40.233	-36.359
263584.961	87.619	98.050	66.161	13.411	-47.982	-128.448	-109.673	-110.567
263584.969	142.157	149.608	116.825	64.671	4.172	-81.658	-50.366	-63.479
263584.977	116.825	121.891	95.963	33.975	-14.901	-98.646	-84.937	-74.506
263584.985	158.846	165.105	137.091	74.208	30.994	-59.903	-33.677	-28.014
263584.993	107.884	113.845	79.274	28.610	-32.187	-100.136	-81.360	-71.228
263585.001	94.473	98.348	84.937	16.093	-41.425	-130.236	-105.500	-113.845
263585.009	145.435	148.416	143.349	62.287	15.199	-79.274	-53.942	-56.326
263585.017	90.003	93.579	90.599	5.364	-41.723	-123.680	-109.076	-105.500
263585.025	168.979	171.065	174.940	84.043	42.617	-63.181	-35.167	-43.511
263585.033	122.786	123.084	126.660	30.994	3.576	-91.195	-75.400	-71.228
263585.041	130.236	130.534	135.303	45.896	1.788	-89.407	-68.247	-72.718
263585.049	169.873	172.257	178.516	84.341	30.994	-56.326	-29.802	-38.445
263585.057	101.030	99.838	113.249	17.583	-30.696	-126.064	-109.971	-109.971
263585.065	172.555	167.191	187.159	86.725	47.982	-70.035	-40.829	-47.386
263585.073	132.620	129.342	154.972	49.174	8.345	-89.109	-67.651	-66.161
263585.079	138.283	134.408	165.403	54.538	15.497	-77.784	-56.028	-45.598
263585.087	188.649	182.688	211.895	104.308	68.843	-23.246	11.623	1.490
263585.095	110.865	107.288	139.475	26.524	-9.239	-81.658	-60.499	-61.393
263585.103	177.324	171.661	218.153	91.493	67.055	-37.551	-5.960	-10.133
263585.111	157.952	152.588	201.166	68.843	50.962	-45.300	-24.140	-21.756
263585.119	140.369	135.303	187.457	55.432	30.696	-70.930	-47.386	-45.002
263585.127	168.085	163.615	220.239	84.043	63.479	-36.657	-0.596	-9.537
263585.135	109.076	99.540	162.423	22.054	0.298	-73.910	-49.770	-44.703
263585.143	169.873	155.568	239.611	82.552	66.161	-29.504	1.788	4.768
263585.151	105.798	93.281	181.496	19.670	9.537	-77.188	-51.856	-55.432
263585.159	96.560	88.513	174.046	13.709	5.662	-86.129	-64.075	-59.307
263585.167	160.635	153.184	246.167	83.447	74.506	-22.948	12.815	9.835
263585.175	103.712	92.089	189.841	28.610	25.034	-67.055	-42.319	-31.292
263585.183	121.295	108.480	209.212	43.511	34.869	-68.247	-33.379	-41.127
263585.191	108.778	97.454	205.636	30.100	28.014	-72.122	-47.088	-38.147
263585.199	109.673	97.454	211.596	30.398	37.253	-73.016	-48.280	-32.187
263585.207	154.674	141.263	250.638	73.910	74.804	-28.908	2.384	8.047
263585.215	92.983	76.294	198.185	9.835	17.881	-82.254	-59.307	-49.770
263585.223	153.184	139.773	272.691	68.843	84.937	-31.590	1.788	-1.788
263585.231	116.825	103.414	234.544	37.849	45.896	-52.750	-31.590	-20.266
263585.239	112.057	97.454	225.902	39.935	39.935	-64.969	-37.551	-27.120
263585.247	153.780	137.389	271.201	81.956	86.129	-17.583	24.736	11.027
263585.255	97.156	74.208	220.239	11.325	30.100	-87.023	-68.843	-53.942
263585.263	148.416	128.150	283.420	67.949	78.678	-48.578	-14.901	-16.391
263585.271	130.832	114.739	273.585	55.730	72.420	-57.518	-36.061	-22.948
263585.279	126.064	105.500	270.605	51.260	71.228	-65.267	-41.425	-28.312
263585.287	169.277	147.820	309.050	89.407	109.076	-27.418	6.557	1.490
263585.295	122.190	100.136	264.347	44.703	64.671	-61.691	-53.048	-28.610
263585.302	175.834	154.972	324.845	107.884	111.163	-19.670	1.192	8.643
263585.310	158.548	135.005	308.752	86.427	96.262	-33.081	-13.411	-1.490
263585.318	118.911	95.665	275.373	41.127	57.518	-89.407	-67.353	-61.989
263585.326	181.794	160.933	337.362	105.500	123.084	-28.610	4.768	-4.172
263585.334	136.495	116.229	294.447	66.757	80.764	-64.969	-50.068	-36.359
263585.342	172.853	149.012	335.872	101.626	113.249	-49.770	-29.206	-19.372
263585.350	143.945	119.209	304.580	66.757	77.784	-67.353	-47.386	-43.511
263585.358	164.509	141.561	334.680	91.493	100.732	-47.386	-29.802	-7.749
263585.366	191.033	164.509	360.310	123.680	127.256	-32.485	-4.768	-2.682
263585.374	123.978	92.983	290.871	50.366	64.075	-90.003	-70.930	-66.459
263585.382	187.457	158.548	359.416	116.527	126.958	-30.100	-5.364	-5.960
263585.390	168.979	141.263	345.111	96.262	109.971	-47.684	-31.590	-22.948
263585.398	130.534	102.818	317.693	57.220	64.969	-95.367	-79.572	-70.930
263585.406	190.139	160.038	380.874	117.421	124.574	-33.677	-9.835	-9.835
263585.414	173.151	142.753	367.165	100.136	115.335	-36.359	-22.948	-1.490
263585.422	166.297	137.091	361.204	95.963	104.308	-61.989	-42.319	-38.743
263585.430	129.044	98.944	317.097	57.817	61.095	-93.877	-76.592	-82.254
263585.438	147.820	118.315	338.852	82.254	78.976	-75.400	-53.942	-51.260
263585.446	206.232	176.728	403.225	146.329	139.773	-20.266	-2.086	9.537
263585.454	134.110	102.818	333.488	73.016	69.737	-75.698	-69.141	-49.174
263585.462	156.462	127.256	355.542	99.838	84.639	-65.565	-41.127	-46.492
263585.470	131.130	101.328	335.276	68.843	63.777	-74.506	-57.220	-59.903
263585.478	154.078	125.766	364.780	93.579	93.877	-58.115	-41.723	-26.822
263585.486	147.223	117.421	343.919	85.831	75.698	-65.863	-43.213	-38.147
263585.494	116.527	82.254	326.335	48.876	45.002	-96.560	-78.976	-79.274
263585.502	185.072	155.270	400.841	123.084	114.143	-42.319	-30.398	-16.093
263585.510	116.825	88.215	337.362	54.836	48.578	-85.235	-84.341	-65.863
263585.518	135.005	103.414	357.628	74.804	63.777	-84.043	-71.824	-67.055
263585.521	142.753	109.673	361.204	77.188	72.420	-73.016	-59.605	-56.326
263585.529	123.978	94.473	346.601	66.161	60.201	-76.890	-77.188	-56.922
263585.537	170.767	142.753	393.093	113.845	105.202	-44.703	-35.465	-22.948
263585.545	99.838	73.314	320.375	43.213	27.716	-106.692	-104.010	-101.626
263585.553	138.283	112.355	361.204	83.447	70.632	-70.333	-66.757	-58.115
263585.561	141.561	112.951	360.608	79.572	70.035	-57.518	-52.750	-41.723
263585.569	123.382	93.281	345.707	60.201	52.750	-73.314	-74.506	-58.115
263585.577	144.541	116.229	366.867	89.109	77.486	-68.843	-60.499	-53.346
263585.585	90.003	61.095	309.050	32.187	20.862	-109.076	-106.692	-107.288
263585.593	148.118	118.613	376.701	101.328	81.062	-72.718	-66.161	-64.373
263585.601	146.925	118.911	379.086	95.069	79.870	-62.883	-55.432	-49.770
263585.609	89.407	63.479	325.143	34.869	22.650	-116.229	-115.335	-102.222
263585.617	147.223	121.891	388.026	87.321	80.764	-78.976	-63.479	-63.777
263585.625	105.202	75.996	344.515	36.657	45.002	-99.540	-99.242	-89.109
263585.633	125.170	93.877	365.078	65.863	64.969	-89.705	-84.937	-70.035
263585.641	101.328	74.804	335.574	47.386	38.445	-112.057	-98.646	-100.434
263585.649	103.414	77.784	342.727	45.896	50.068	-108.480	-109.971	-91.791
263585.657	148.714	118.613	385.940	83.447	92.685	-67.055	-64.075	-50.068
263585.665	96.560	65.863	338.256	33.975	35.465	-94.771	-90.897	-88.513
263585.673	156.164	128.150	405.908	98.944	104.904	-41.425	-42.915	-23.246
263585.681	106.692	80.466	348.091	46.492	51.558	-84.341	-87.917	-78.380
263585.689	81.062	51.856	326.335	20.862	26.226	-112.057	-118.911	-109.971
263585.697	156.164	130.236	410.974	98.050	105.500	-50.664	-43.511	-39.637
263585.705	118.017	95.367	368.357	58.711	69.737	-67.055	-70.333	-56.624
263585.713	135.601	112.355	387.728	78.380	87.917	-61.095	-63.777	-51.856
263585.721	106.096	85.533	352.859	46.790	53.048	-90.599	-87.619	-87.321
263585.729	103.414	79.274	358.224	49.770	53.346	-92.089	-95.963	-86.129
263585.737	165.403	141.561	424.385	114.143	119.507	-40.531	-31.292	-26.524
263585.759	109.375	85.235	362.098	51.856	67.651	-85.533	-83.745	-84.341
263585.767	166.595	142.455	417.829	105.500	126.064	-41.723	-45.300	-26.226
263585.775	146.627	126.064	399.351	89.109	100.434	-47.982	-40.829	-45.300
263585.783	128.448	104.904	393.689	69.439	92.089	-68.545	-72.420	-63.777
263585.791	185.072	161.827	446.439	123.978	148.416	-30.100	-29.206	-19.670
263585.799	144.243	122.190	401.139	80.168	112.355	-53.942	-59.009	-46.492
263585.807	164.807	145.435	422.597	110.269	130.534	-38.445	-35.465	-26.226
263585.815	150.204	135.005	401.437	97.156	112.355	-47.088	-50.068	-35.465
263585.823	113.547	97.752	365.376	57.220	83.447	-76.890	-87.023	-76.294
263585.831	187.159	167.787	440.478	123.382	164.211	-19.968	-19.073	-18.179
263585.839	140.369	118.017	392.497	75.698	112.355	-44.405	-55.432	-39.637
263585.847	165.403	144.839	421.107	106.096	140.369	-14.603	-18.179	-3.874
263585.855	153.184	135.601	403.523	93.877	129.342	-13.113	-16.689	-1.788
263585.863	114.143	98.646	368.357	51.856	87.023	-49.770	-56.028	-50.664
263585.871	194.907	181.496	443.459	145.137	170.767	9.239	14.603	14.007
263585.879	176.430	162.125	425.577	121.593	162.125	1.490	-0.298	8.643
263585.887	164.509	151.992	413.954	115.037	143.349	-22.054	-19.670	-16.987
263585.895	122.786	112.057	368.059	82.850	99.242	-56.922	-48.578	-62.287
263585.903	122.786	111.759	367.761	78.976	106.692	-39.339	-38.147	-41.425
263585.911	205.338	196.993	438.392	162.125	186.861	42.617	55.432	47.684
263585.919	137.985	131.726	384.450	96.262	126.064	0.000	-0.298	-0.596
263585.927	155.270	151.694	401.437	127.554	143.349	14.603	14.007	23.246
263585.935	143.051	137.985	378.490	114.739	128.150	1.490	4.470	4.768
263585.943	123.680	118.017	360.310	90.599	116.229	-12.517	-12.517	-18.775
263585.951	169.575	166.595	403.821	139.773	162.125	32.783	42.617	36.359
263585.959	107.586	106.394	339.448	85.533	95.665	-14.007	-11.921	-16.093
263585.967	147.223	149.012	377.595	134.408	138.283	16.987	26.226	20.564
263585.975	136.197	133.812	366.271	110.567	137.687	20.266	33.379	27.120
263585.980	132.024	133.216	366.271	120.699	133.216	27.716	34.571	30.696
263585.988	143.051	147.521	369.549	137.389	151.098	34.571	50.962	36.359
263585.996	79.870	82.850	306.070	67.949	96.858	-9.239	-9.537	-13.113
263586.004	137.389	142.455	360.012	132.322	136.793	35.763	41.723	40.233
263586.012	126.958	131.130	345.409	120.103	123.382	33.081	44.405	36.061
263586.020	92.387	94.771	319.779	87.917	103.116	14.007	15.199	11.921
263586.028	125.766	128.746	355.840	122.786	134.706	25.928	42.617	23.246
263586.036	73.016	77.188	292.659	65.565	77.486	-4.172	-5.066	-5.364
263586.044	122.786	130.236	350.773	114.739	150.502	45.896	42.617	49.770
263586.052	87.917	101.924	306.666	89.109	98.944	32.783	31.590	37.849
263586.060	84.639	96.560	296.831	95.963	90.599	26.524	24.736	28.312
263586.068	118.315	124.872	337.362	120.997	142.455	43.213	61.393	33.677
263586.076	65.565	72.122	280.738	63.479	87.321	5.960	3.874	-4.768
263586.084	103.414	109.375	318.289	102.520	118.613	41.723	46.790	38.445
263586.092	78.380	89.705	282.228	81.062	80.168	28.908	38.147	23.544
263586.100	92.089	102.520	298.917	88.811	106.394	46.492	41.723	46.194
263586.108	128.448	140.965	331.402	132.024	140.071	73.612	78.976	73.314
263586.116	90.003	102.222	273.883	104.606	101.030	45.896	35.167	40.829
263586.124	95.963	109.673	285.208	113.845	102.818	50.962	41.425	45.896
263586.132	77.486	89.705	274.777	86.725	87.917	38.743	31.292	28.312
263586.140	78.976	90.599	268.221	85.831	91.791	58.413	34.571	54.538
263586.148	96.560	109.971	284.910	111.759	111.163	64.075	52.452	55.730
263586.156	38.445	50.664	221.729	56.028	39.637	9.537	-16.093	-3.278
263586.164	107.884	119.507	290.275	121.891	122.786	78.082	53.048	73.016
263586.172	81.658	94.473	257.790	93.281	100.136	61.989	26.524	54.538
263586.180	53.942	74.208	216.365	84.639	47.684	42.915	-13.411	31.888
263586.188	95.963	118.613	252.426	126.958	101.924	72.420	30.696	70.632
263586.196	30.994	50.366	188.649	62.585	34.571	29.504	-15.795	19.073
263586.186	79.870	95.069	241.101	105.202	84.043	73.016	25.332	72.420
263586.194	64.373	79.274	211.596	81.956	78.380	70.035	25.332	61.989
263586.202	50.962	66.161	207.126	76.592	63.181	64.969	5.662	59.307
263586.210	78.678	99.838	229.478	113.547	72.122	82.552	28.014	76.294
263586.218	42.021	59.009	187.755	73.314	43.213	66.757	1.788	58.413
263586.226	57.220	74.804	201.762	94.175	55.730	71.526	18.179	65.267
263586.234	31.888	49.472	170.469	61.989	38.743	57.817	3.278	53.644
263586.242	44.703	64.075	175.536	80.168	42.915	85.235	23.544	86.427
263586.250	100.136	121.295	229.478	141.859	99.242	120.699	58.711	120.103
263586.258	20.564	41.127	139.773	59.307	9.239	65.863	-0.596	59.903
263586.266	70.035	90.003	186.861	108.778	71.228	111.759	53.644	114.143
263586.274	42.617	65.267	161.529	77.784	41.723	89.109	33.677	85.533
263586.282	41.127	61.095	163.913	77.784	50.664	82.850	13.113	85.533
263586.290	96.560	118.613	205.636	142.753	84.341	129.044	77.188	135.899
263586.298	47.684	69.439	142.455	89.407	30.398	96.560	32.485	100.434
263586.306	50.962	69.439	156.462	87.917	50.962	84.937	27.716	86.427
263586.314	51.260	67.353	154.376	87.023	39.637	91.195	35.465	89.705
263586.322	53.942	72.122	153.780	99.242	50.962	98.944	32.783	105.202
263586.330	69.439	88.513	168.681	113.249	66.757	109.375	53.048	117.123
263586.338	6.855	26.524	92.983	45.300	-5.066	76.890	8.941	80.168
263586.346	95.665	115.931	181.794	142.753	93.281	151.992	93.877	163.913
263586.354	49.174	69.141	128.448	100.136	35.167	106.394	44.107	108.480
263586.362	24.736	46.194	109.375	76.592	17.285	80.466	6.557	85.533
263586.370	98.646	122.786	172.555	153.184	82.850	156.760	98.944	170.767
263586.378	14.901	40.531	84.341	68.545	-7.153	88.215	25.332	87.023
263586.386	43.809	67.055	123.680	98.944	31.292	112.057	62.585	111.163
263586.394	48.280	73.612	121.891	106.394	47.386	125.766	67.055	125.766
263586.402	22.948	49.174	96.560	86.427	25.332	99.540	19.372	108.778
263586.425	66.757	92.089	128.150	135.899	48.578	146.627	72.420	158.846
263586.433	0.000	25.034	59.605	63.479	-16.689	93.281	12.517	90.301
263586.441	50.962	69.439	120.103	109.076	38.147	131.726	61.691	129.938
263586.449	38.147	59.307	102.520	100.136	27.418	131.428	68.545	123.978
263586.457	-1.490	24.438	56.922	68.843	-13.411	107.884	31.292	106.692
263586.465	54.836	77.188	101.924	118.315	40.829	148.714	83.148	159.740
263586.473	-14.007	6.855	29.504	45.002	-44.703	95.367	19.372	101.924
263586.481	27.716	46.492	80.764	85.235	7.153	113.845	47.684	111.461
263586.489	43.511	61.691	85.235	100.136	27.716	127.554	60.499	129.044
263586.497	31.292	52.154	70.035	89.109	8.941	140.071	61.989	148.714
263586.505	46.194	64.075	94.473	108.182	24.736	129.342	67.353	139.177
263586.513	-6.258	14.007	33.081	60.201	-37.253	92.089	32.783	96.262
263586.521	53.048	68.545	95.665	121.295	33.677	130.534	76.890	141.263
263586.529	32.187	49.770	59.307	101.030	-2.086	121.593	71.824	129.342
263586.537	-5.960	12.815	24.736	59.009	-29.802	99.540	52.452	100.136
263586.545	41.723	60.797	73.016	98.944	28.908	141.263	103.116	146.925
263586.553	10.729	30.100	36.359	66.161	-15.497	132.024	76.592	140.965
263586.561	33.081	49.770	68.843	92.387	7.153	135.899	85.533	136.495
263586.569	3.278	25.034	32.783	70.333	-30.994	108.182	64.373	100.732
263586.577	-3.576	14.603	22.054	56.028	-30.100	114.441	61.691	120.699
263586.585	33.379	51.856	50.962	89.109	10.729	153.184	118.911	162.423
263586.593	-18.179	1.788	-9.239	39.041	-37.253	109.673	69.439	112.951
263586.601	36.657	59.009	48.876	102.520	-6.557	133.514	87.917	144.839
263586.609	43.213	64.075	62.883	103.414	11.623	137.985	97.752	150.502
263586.617	13.113	33.975	35.763	62.883	-15.199	113.249	70.035	123.680
263586.625	39.935	65.565	48.876	95.367	6.258	131.428	101.626	139.475
263586.633	-7.749	19.073	-14.603	57.817	-58.711	107.884	62.883	127.554
263586.641	36.657	61.393	39.339	103.414	-10.431	123.978	95.963	142.753
263586.629	34.273	56.028	35.763	91.195	7.153	129.640	109.673	138.879
263586.637	4.470	28.312	2.086	62.287	-41.425	117.123	83.148	127.256
263586.645	20.862	44.703	17.285	84.639	-32.187	120.103	94.771	126.362
263586.653	-43.213	-21.160	-51.856	17.583	-89.109	75.996	40.531	79.572
263586.661	15.199	36.955	4.470	75.400	-32.485	119.805	90.301	134.408
263586.669	-0.298	25.034	-21.458	68.843	-52.452	114.441	89.705	124.574
263586.677	-24.140	2.682	-37.849	48.280	-67.949	101.924	74.208	115.335
263586.685	7.153	35.167	-13.709	78.082	-42.617	125.766	108.480	143.945
263586.693	-65.267	-42.915	-80.168	-0.298	-117.719	54.240	29.504	56.624
263586.701	-19.372	2.980	-28.014	50.664	-62.287	98.944	81.956	111.163
263586.709	-1.490	24.140	-19.670	73.314	-47.386	131.726	115.633	143.051
263586.717	-42.915	-17.881	-60.797	25.332	-81.360	104.606	85.831	113.845
263586.725	-16.689	3.874	-31.590	44.405	-56.624	110.865	100.136	120.401
263586.733	-67.949	-47.088	-84.937	0.596	-106.692	70.035	47.982	78.976
263586.741	-45.598	-20.564	-57.518	30.696	-75.400	85.533	80.764	99.540
263586.749	-32.783	-4.768	-47.386	44.703	-66.459	106.096	87.321	119.507
263586.757	-81.658	-56.922	-90.599	-5.662	-114.739	66.757	24.736	71.526
263586.765	-29.802	-5.662	-35.763	46.790	-57.220	106.990	69.737	121.593
263586.773	-101.626	-79.274	-109.076	-29.504	-127.256	45.896	1.490	53.942
263586.781	-84.639	-60.201	-91.493	-4.768	-110.269	56.922	25.928	62.883
263586.789	-41.723	-20.266	-52.154	36.061	-59.307	111.461	84.341	121.891
263586.797	-93.877	-73.314	-92.983	-17.285	-96.858	74.506	29.802	88.513
263586.805	-66.459	-45.300	-45.896	14.007	-65.565	82.850	44.107	101.328
263586.813	-120.997	-101.626	-99.242	-43.213	-117.719	48.876	2.682	65.565
263586.821	-98.348	-81.956	-68.247	-18.775	-95.665	60.797	23.544	70.632
263586.829	-66.459	-53.942	-31.888	19.968	-53.048	98.050	68.247	111.759
263586.837	-93.579	-84.937	-56.922	-16.391	-73.016	81.658	43.809	98.050
263586.845	-100.732	-89.705	-61.691	-19.670	-88.513	66.757	39.041	76.592
263586.867	-149.608	-136.793	-101.924	-61.095	-131.130	33.379	-5.662	39.935
263586.875	-83.447	-65.863	-25.630	7.749	-53.048	84.043	42.319	105.202
263586.883	-113.547	-97.454	-50.962	-24.438	-84.043	54.836	15.199	71.526
263586.891	-120.997	-108.778	-56.326	-37.253	-83.148	54.836	16.391	69.141
263586.899	-62.883	-54.240	-2.980	16.093	-27.418	104.904	73.314	122.190
263586.907	-112.951	-101.924	-49.770	-27.418	-82.850	64.969	21.756	68.843
263586.915	-65.565	-55.134	2.682	25.332	-28.610	99.838	60.797	106.692
263586.923	-78.678	-69.737	-16.689	7.153	-36.359	93.877	57.518	106.692
263586.931	-107.884	-98.050	-45.896	-22.650	-68.247	59.009	22.650	68.247
263586.939	-71.228	-62.287	-7.451	7.451	-37.849	75.102	50.068	80.466
263586.947	-111.759	-109.375	-46.790	-41.425	-75.698	54.836	16.391	65.267
263586.955	-54.538	-50.664	8.047	22.948	-14.305	104.010	75.400	120.401
263586.963	-107.586	-99.540	-49.770	-26.226	-69.737	44.703	23.544	46.194
263586.971	-140.965	-136.197	-81.062	-62.585	-98.944	14.901	-18.179	13.113
263586.979	-63.777	-60.499	-3.874	16.689	-25.928	85.533	57.220	95.069
263586.987	-108.182	-106.692	-39.637	-32.485	-72.122	55.134	15.199	67.651
263586.995	-90.599	-87.023	-17.583	-14.603	-45.896	58.115	26.226	72.718
263587.003	-84.043	-78.678	-22.650	-13.411	-39.041	61.095	31.888	73.314
263587.011	-106.990	-106.990	-35.763	-30.100	-69.439	34.571	0.298	42.617
263587.019	-91.195	-87.917	-23.544	-10.431	-57.817	32.783	10.729	41.723
263587.027	-134.706	-130.832	-70.632	-60.499	-96.560	5.066	-29.802	10.431
263587.035	-98.348	-96.262	-32.485	-24.438	-54.240	31.888	1.490	46.194
263587.043	-89.705	-88.513	-28.908	-11.623	-50.664	43.809	18.179	54.538
263587.051	-131.130	-130.534	-70.333	-61.393	-95.665	6.557	-26.226	9.239
263587.059	-92.685	-94.473	-22.054	-28.014	-55.134	20.564	-2.682	25.630
263587.067	-115.335	-115.037	-42.319	-44.405	-78.380	9.835	-14.901	15.199
263587.075	-76.294	-76.294	-8.941	-3.576	-30.994	31.888	4.172	47.982
263587.083	-95.069	-95.665	-31.590	-32.485	-52.750	16.093	-6.258	23.544
263587.089	-102.222	-101.924	-37.551	-33.677	-62.883	13.113	-14.901	21.160
263587.097	-96.858	-96.262	-41.127	-20.862	-68.247	3.576	-8.643	0.298
263587.105	-146.031	-147.223	-85.235	-74.506	-114.739	-29.504	-54.240	-36.657
263587.113	-102.818	-104.308	-29.802	-36.061	-69.141	3.874	-16.987	6.557
263587.121	-112.355	-112.057	-42.617	-52.154	-73.314	-14.603	-32.783	-18.477
263587.129	-137.985	-139.475	-72.122	-66.459	-102.222	-33.379	-64.969	-34.273
263587.137	-83.447	-87.917	-20.862	-10.729	-44.405	21.458	0.298	25.332
263587.145	-136.793	-143.349	-75.400	-66.459	-105.798	-45.896	-64.969	-55.432
263587.153	-88.513	-95.963	-17.881	-22.054	-61.095	-22.948	-40.829	-33.975
263587.161	-90.301	-96.560	-17.583	-30.696	-57.220	-15.497	-36.657	-23.842
263587.169	-108.778	-113.845	-40.829	-48.280	-75.102	-26.524	-48.876	-31.292
263587.177	-73.016	-77.188	-13.411	-12.219	-44.703	-5.364	-20.266	-5.662
263587.185	-130.832	-135.303	-73.612	-71.228	-105.202	-46.194	-71.228	-51.260
263587.193	-87.917	-93.281	-11.027	-18.477	-60.499	-18.179	-33.081	-19.073
263587.201	-120.997	-126.660	-52.154	-55.432	-100.136	-63.777	-77.486	-77.188
263587.209	-115.037	-122.190	-47.684	-55.432	-87.619	-59.903	-84.341	-70.035
263587.217	-44.107	-53.942	21.160	13.709	-21.458	-8.345	-23.544	-16.093
263587.225	-106.096	-118.315	-43.511	-49.472	-92.089	-47.386	-67.055	-61.095
263587.233	-71.824	-80.168	-4.470	-12.815	-54.240	-23.246	-41.425	-28.610
263587.241	-53.644	-63.777	10.431	-0.298	-33.379	3.576	-14.603	-5.960
263587.249	-72.420	-81.360	-1.192	-8.345	-59.903	-26.524	-50.664	-42.319
263587.257	-60.499	-67.949	5.066	3.576	-47.684	-20.564	-30.696	-32.187
263587.265	-109.971	-119.805	-45.300	-57.220	-100.136	-59.307	-84.341	-70.930
263587.273	-34.273	-42.915	40.829	20.862	-21.458	14.305	-10.133	22.352
263587.281	-102.520	-108.480	-33.081	-43.213	-96.262	-62.287	-76.890	-89.109
263587.289	-90.897	-101.030	-15.199	-41.425	-84.043	-71.824	-90.599	-105.798
263587.297	-45.598	-55.134	27.716	4.172	-39.935	-19.073	-32.187	-35.465
263587.305	-80.466	-92.983	-10.133	-30.696	-78.082	-44.405	-67.949	-59.307
263587.326	-32.187	-43.511	42.021	18.477	-18.775	-3.278	-22.054	-5.960
263587.334	-25.034	-40.233	39.935	16.987	-20.564	14.007	8.643	2.086
263587.342	-75.996	-91.493	-8.345	-30.398	-84.639	-53.346	-68.843	-73.910
263587.350	-43.809	-59.009	31.590	-5.066	-54.240	-38.445	-53.346	-36.955
263587.358	-74.506	-88.513	0.298	-35.465	-85.235	-59.903	-75.996	-76.294
263587.366	-45.300	-59.307	25.928	1.490	-56.624	-37.551	-43.809	-68.247
263587.374	-36.061	-50.366	32.783	3.874	-45.598	-18.477	-23.544	-40.233
263587.382	-112.355	-127.852	-29.802	-79.274	-133.216	-101.328	-115.633	-130.236
263587.390	-61.095	-76.592	22.352	-27.120	-71.824	-65.863	-58.711	-90.003
263587.398	-89.705	-106.096	-18.477	-56.624	-96.262	-80.764	-92.983	-100.434
263587.406	-46.194	-57.817	23.842	-7.153	-62.883	-35.465	-46.492	-45.598
263587.414	-77.486	-92.983	2.086	-48.280	-106.990	-63.777	-76.294	-81.658
263587.422	-85.831	-101.328	-15.795	-55.432	-110.567	-78.082	-92.387	-102.818
263587.430	-28.312	-39.637	45.002	4.768	-58.711	-33.379	-34.869	-52.154
263587.438	-77.188	-89.109	4.768	-44.107	-107.884	-67.651	-81.956	-85.533
263587.446	-59.605	-72.420	21.160	-28.908	-80.168	-71.526	-76.890	-91.791
263587.454	-85.831	-98.646	-14.007	-51.558	-120.103	-95.069	-95.069	-125.766
263587.462	-92.685	-110.865	-16.391	-69.439	-115.037	-91.791	-96.858	-112.355
263587.470	-35.167	-51.558	39.339	-14.901	-64.075	-50.664	-48.280	-73.314
263587.478	-73.016	-85.533	14.603	-48.578	-99.242	-66.161	-78.380	-84.639
263587.486	-26.226	-39.041	61.989	1.490	-52.452	-44.703	-43.511	-62.883
263587.494	-74.208	-85.533	10.133	-52.452	-112.951	-99.838	-97.454	-132.322
263587.502	-63.777	-74.804	19.073	-47.386	-90.003	-87.321	-90.897	-109.076
263587.510	-63.777	-71.824	17.285	-42.915	-93.281	-85.533	-78.082	-113.845
263587.518	-115.335	-123.084	-37.253	-92.983	-150.800	-117.123	-118.017	-144.541
263587.526	-66.757	-75.102	17.285	-49.770	-96.858	-85.235	-83.447	-101.924
263587.534	-67.949	-74.804	18.775	-51.558	-99.242	-81.658	-75.400	-101.030
263587.542	-57.518	-64.671	34.273	-37.551	-81.956	-63.777	-53.346	-84.043
263587.533	-42.617	-46.790	38.445	-28.908	-70.333	-67.651	-53.048	-81.658
263587.541	-106.692	-115.633	-32.187	-98.944	-146.925	-116.825	-118.315	-137.687
263587.549	-65.863	-73.910	22.352	-54.538	-108.778	-97.752	-98.944	-117.123
263587.557	-58.115	-61.393	33.081	-44.405	-87.917	-92.983	-87.917	-112.057
263587.565	-66.757	-70.632	23.544	-53.942	-102.818	-88.811	-91.493	-102.818
263587.573	-15.795	-22.352	61.393	-3.576	-53.048	-49.770	-37.551	-66.161
263587.581	-64.969	-73.016	16.689	-59.307	-104.010	-86.725	-84.043	-109.673
263587.589	-55.432	-60.499	35.167	-44.405	-99.838	-95.963	-91.791	-120.997
263587.597	-23.842	-31.292	64.373	-19.670	-62.883	-60.797	-52.750	-82.254
263587.605	-44.703	-50.068	37.253	-42.021	-84.937	-66.459	-64.671	-87.023
263587.613	3.576	-8.047	73.016	2.980	-46.790	-38.147	-22.054	-63.479
263587.621	-27.716	-45.300	32.783	-39.339	-86.725	-68.843	-59.009	-101.030
263587.629	34.571	13.411	101.924	15.795	-22.650	-36.657	-30.100	-57.518
263587.637	1.192	-16.987	66.161	-16.093	-62.585	-63.181	-57.518	-84.341
263587.645	4.172	-16.093	73.016	-16.391	-58.115	-55.730	-48.280	-78.082
263587.653	48.280	27.120	132.918	25.332	-11.921	-17.881	5.066	-41.425
263587.661	-19.968	-39.339	51.856	-46.492	-79.870	-69.439	-59.605	-94.771
263587.669	27.120	11.325	94.175	11.325	-34.571	-44.405	-36.359	-64.969
263587.677	7.451	-10.729	74.506	-16.987	-57.518	-58.413	-43.809	-80.764
263587.685	-11.921	-29.206	60.797	-39.637	-82.254	-79.274	-73.910	-106.394
263587.693	40.233	25.630	120.699	14.901	-18.775	-44.405	-28.908	-67.055
263587.701	16.391	5.364	96.858	-13.709	-33.677	-38.147	-22.352	-53.644
263587.709	39.041	22.650	112.057	-1.490	-14.305	-33.975	-15.497	-46.492
263587.717	33.379	17.583	104.010	6.258	-42.319	-54.836	-41.425	-73.314
263587.725	12.219	-4.470	84.937	-11.921	-64.671	-70.632	-52.154	-85.533
263587.733	51.856	36.657	118.613	24.438	-19.670	-49.770	-19.372	-67.949
263587.741	16.093	-1.192	86.427	-18.477	-53.048	-81.062	-65.267	-96.560
263587.749	54.836	36.061	125.170	23.544	-18.477	-52.452	-28.610	-66.459
263587.756	64.671	48.876	139.177	31.292	-10.133	-37.551	-14.305	-48.876
263587.764	26.524	10.133	106.990	-7.451	-53.346	-64.075	-45.896	-78.678
263587.772	78.976	65.267	157.356	43.213	10.133	-22.352	2.682	-36.359
263587.780	38.147	19.670	116.527	-7.153	-31.292	-60.201	-44.107	-75.996
263587.788	19.968	2.682	94.771	-16.093	-48.876	-80.168	-62.585	-101.030
263587.796	50.664	37.551	120.699	16.689	-23.246	-48.578	-25.332	-69.141
263587.804	37.551	23.842	110.567	0.596	-38.147	-64.969	-46.194	-76.890
263587.812	85.533	72.718	163.615	49.770	13.411	-21.160	1.788	-22.948
263587.820	29.206	16.987	103.414	-8.345	-47.088	-69.737	-49.174	-82.552
263587.828	54.240	43.213	135.899	12.219	-14.007	-51.856	-25.630	-64.671
263587.836	60.201	48.876	134.408	19.670	-8.643	-51.558	-22.650	-76.294
263587.844	25.630	12.815	93.579	-10.133	-63.181	-77.188	-62.585	-89.109
263587.852	70.930	59.307	148.416	36.061	-20.266	-43.213	-7.451	-58.413
263587.860	61.691	46.790	142.157	15.199	-11.921	-42.915	-19.968	-47.982
263587.868	50.068	35.465	126.958	5.066	-21.160	-59.605	-33.975	-83.148
263587.876	77.784	66.161	148.118	41.723	-3.278	-30.696	-8.643	-61.989
263587.884	63.777	50.068	148.416	26.226	-13.113	-44.703	-31.292	-67.353
263587.892	98.348	88.513	185.072	58.115	19.372	-22.054	3.278	-43.213
263587.900	53.048	41.723	140.369	10.133	-22.650	-61.989	-43.809	-84.341
263587.908	86.129	73.314	168.383	50.962	7.153	-38.147	-13.113	-52.750
263587.916	102.222	89.109	178.516	60.201	24.140	-21.756	9.835	-34.273
263587.924	58.711	43.809	136.793	12.219	-14.901	-69.141	-46.194	-86.129
263587.932	119.209	105.202	205.338	70.035	42.021	-12.219	13.411	-26.226
263587.940	39.935	31.888	128.448	-1.192	-42.915	-81.658	-59.605	-107.288
263587.948	76.294	67.651	163.615	41.425	-6.855	-54.240	-26.822	-78.678
263587.956	92.983	78.380	180.900	47.684	11.623	-39.339	-11.027	-65.267
263587.964	68.843	52.154	152.290	26.524	-9.835	-65.267	-45.896	-84.639
263587.972	126.362	110.567	211.298	79.870	52.154	-21.756	4.172	-40.233
263587.979	102.222	88.215	186.265	57.817	26.822	-30.994	-10.431	-50.962
263587.987	114.143	103.414	196.099	72.718	34.273	-32.783	-9.835	-55.134
263587.995	135.899	129.938	218.749	97.156	50.366	-16.093	16.093	-39.935
263588.003	140.369	134.408	224.710	104.308	49.472	-28.312	-5.960	-42.617
263588.011	199.378	195.205	285.804	166.893	102.520	-0.894	26.822	-20.266
263588.019	182.688	184.476	264.049	159.740	70.333	-33.677	-8.345	-61.989
263588.027	274.479	279.844	344.217	258.684	157.654	28.610	58.413	7.451
263588.035	312.030	319.481	371.039	297.427	182.390	45.300	78.082	17.285
263588.043	272.095	280.738	330.508	261.366	127.852	-21.756	-1.490	-47.982
263588.051	326.633	335.574	384.748	312.924	187.457	16.391	39.637	-8.345
263588.059	326.633	337.660	391.901	314.713	192.225	17.285	35.465	0.894
263588.067	314.116	326.931	382.364	306.070	178.516	-4.470	22.650	-23.544
263588.075	281.930	297.427	349.283	272.989	150.502	-16.987	5.960	-39.339
263588.083	274.777	288.188	342.429	259.578	154.078	-1.788	12.815	-16.093
263588.091	286.996	300.705	357.330	267.327	168.681	18.775	40.531	-4.470
263588.099	210.702	222.325	288.486	196.993	99.540	-28.312	-11.623	-61.393
263588.107	232.160	242.293	309.646	216.067	134.408	17.583	40.829	-7.749
263588.115	239.611	252.724	319.779	225.306	148.714	50.068	75.698	27.418
263588.123	167.489	177.622	252.426	148.714	91.791	0.298	22.352	-26.822
263588.131	170.469	180.006	248.253	151.694	98.646	17.881	41.127	-11.921
263588.139	117.123	125.170	205.636	90.003	53.346	-7.749	5.662	-33.975
263588.147	136.495	140.965	236.928	108.480	79.870	20.266	34.571	-3.874
263588.155	137.687	143.945	238.419	112.951	83.447	36.359	53.942	10.133
263588.163	104.606	113.547	207.722	79.870	58.115	19.670	32.187	-9.239
263588.171	160.038	166.893	258.982	132.918	116.527	85.831	107.884	51.260
263588.179	117.719	125.766	215.471	97.156	81.956	66.459	76.294	33.379
263588.187	149.012	154.972	258.088	121.891	120.699	93.579	109.375	60.797
263588.195	129.640	136.495	233.054	101.328	99.540	101.924	115.931	64.373
263588.203	75.400	83.745	188.053	52.452	51.260	50.962	57.220	14.007
263588.211	136.197	141.859	248.253	109.673	114.143	99.540	116.527	56.028
263588.219	103.116	109.673	211.000	76.294	88.215	85.831	90.599	43.213
263588.227	136.793	148.714	242.293	119.507	125.468	124.872	132.322	94.175
263588.234	122.190	136.197	225.008	112.355	106.096	132.620	139.475	99.242
263588.242	54.538	63.479	156.164	44.107	30.994	64.969	68.843	20.266
263588.250	109.673	117.719	218.153	91.195	96.262	108.778	125.468	64.373
263588.258	81.360	91.791	188.053	77.784	78.678	103.414	116.527	56.028
263588.266	137.091	150.800	235.140	142.157	134.110	161.231	173.748	117.123
263588.274	99.838	115.037	201.762	104.606	88.215	133.216	149.906	81.658
263588.282	65.565	80.466	160.038	71.228	59.009	105.500	112.951	54.538
263588.290	152.290	164.509	245.273	161.827	151.396	178.814	196.993	131.726
263588.298	111.461	124.872	213.683	116.825	123.084	160.038	178.218	112.355
263588.306	82.552	103.414	175.536	100.136	88.215	144.541	152.886	98.050
263588.314	94.771	112.355	189.543	109.076	96.262	157.356	169.575	103.116
263588.322	77.486	90.003	170.767	86.129	92.387	150.502	155.866	104.308
263588.330	140.071	158.548	229.478	165.999	158.250	209.808	229.478	165.105
263588.338	86.129	105.798	174.642	112.057	103.116	163.317	169.873	114.739
263588.346	98.348	121.295	184.178	126.064	118.613	167.489	175.834	111.461
263588.354	124.276	148.416	202.358	153.780	148.118	202.060	217.557	146.031
263588.362	99.242	123.382	171.661	131.428	127.554	184.178	188.351	135.303
263588.370	138.879	165.403	211.596	175.536	160.336	227.094	241.399	177.324
263588.378	104.904	129.044	183.284	139.177	131.726	212.193	227.094	159.442
263588.386	118.613	144.839	185.668	157.952	150.502	216.663	238.717	165.403
263588.394	104.010	128.448	164.807	140.071	136.197	207.126	222.325	158.548
263588.402	57.220	84.043	120.997	103.414	89.407	170.171	169.873	122.488
263588.410	113.845	140.965	185.072	158.846	156.760	227.392	242.293	178.218
263588.418	90.897	121.295	155.568	136.197	133.812	212.491	222.027	159.442
263588.426	133.812	163.913	185.966	190.139	178.516	248.253	261.068	202.954
263588.434	119.209	154.972	163.019	182.092	157.654	244.677	265.241	195.503
263588.442	92.685	125.766	150.502	152.290	130.534	215.471	214.875	168.085
263588.450	140.667	174.642	194.907	200.570	178.814	255.406	267.029	204.742
263588.457	100.732	138.283	144.541	160.933	148.118	234.246	246.465	175.834
263588.465	121.891	156.164	160.933	177.324	173.151	255.108	273.585	199.676
263588.473	130.534	165.403	160.933	192.523	177.026	261.962	275.970	207.424
263588.481	107.586	142.753	143.647	180.006	154.972	240.207	245.273	191.629
263588.489	133.812	170.469	160.635	207.424	178.218	269.115	288.486	216.067
263588.497	97.752	134.110	122.190	165.999	141.263	251.532	263.453	199.974
263588.505	123.084	159.144	146.031	189.543	177.920	260.770	275.970	214.279
263588.513	127.852	163.317	133.216	193.715	180.304	270.009	292.361	227.094
263588.521	112.653	147.223	124.574	186.861	160.038	257.790	273.585	215.769
263588.529	156.462	197.589	174.642	237.823	210.106	293.851	316.799	247.955
263588.537	98.944	140.369	109.971	173.151	150.502	261.068	279.844	214.279
263588.545	95.367	134.110	104.308	169.575	150.204	249.147	265.539	204.146
263588.553	120.997	160.038	125.468	191.927	177.622	280.440	294.149	240.505
263588.561	91.195	132.322	93.579	169.277	147.223	260.770	272.691	217.259
263588.569	137.091	180.900	131.428	218.749	193.715	297.725	320.375	253.022
263588.577	104.308	149.310	104.904	186.563	156.760	278.950	296.235	234.544
263588.585	113.547	155.270	101.924	202.656	169.575	288.785	310.540	242.293
263588.593	118.017	158.846	96.858	195.205	177.622	299.811	319.481	255.406
263588.601	86.427	121.295	71.228	163.317	150.204	261.366	273.287	224.710
263588.609	132.024	165.701	115.037	202.656	194.013	296.235	326.335	254.810
263588.617	87.023	125.170	62.883	156.462	153.780	267.625	279.248	237.226
263588.625	100.732	141.561	71.228	178.516	162.721	277.162	293.553	244.081
263588.633	106.990	149.310	74.208	188.053	165.999	301.003	318.587	269.711
263588.641	72.718	114.739	35.465	151.098	141.263	280.440	290.275	249.743
263588.649	71.526	109.971	39.041	141.859	133.514	275.671	301.003	230.968
263588.657	44.405	78.678	7.153	110.269	112.057	269.413	278.354	231.266
263588.665	91.493	130.236	47.088	164.807	161.231	307.858	287.294	278.652
263588.673	79.572	116.527	37.849	153.780	147.820	301.003	266.135	266.731
263588.680	65.267	101.030	19.670	132.024	129.640	283.718	241.697	257.194
263588.688	106.096	146.627	45.896	183.284	174.642	314.414	279.248	286.698
263588.696	56.028	95.367	3.576	137.389	126.362	265.241	212.789	237.226
263588.704	61.393	98.944	14.305	137.389	129.640	272.691	226.200	248.551
263588.712	86.725	125.170	26.822	157.356	157.058	302.494	264.049	272.095
263588.720	46.492	82.254	-13.113	114.143	116.527	270.009	218.451	242.591
263588.728	103.116	136.793	41.127	171.959	175.834	323.653	281.930	303.686
263588.736	49.770	84.937	-18.477	123.680	126.064	281.036	238.121	250.340
263588.744	45.896	85.831	-24.736	126.064	116.825	275.373	234.842	244.081
263588.752	94.771	134.408	24.438	168.681	167.489	323.951	283.718	302.196
263588.760	65.565	101.924	-4.470	126.362	146.627	296.533	250.340	280.738
263588.768	95.963	131.726	22.054	159.740	159.442	320.971	281.036	302.792
263588.776	48.578	83.745	-31.590	117.719	113.845	277.460	233.650	251.234
263588.784	70.333	106.692	-7.749	140.071	150.502	289.679	247.061	267.625
263588.792	72.420	112.653	-3.874	148.714	159.442	304.580	253.618	280.142
263588.800	45.002	86.129	-36.657	120.997	121.891	290.573	229.478	267.923
263588.808	105.798	148.416	18.775	179.112	177.622	348.091	300.109	328.422
263588.816	73.016	112.951	-10.431	146.925	148.118	329.316	276.566	308.752
263588.824	86.725	121.593	7.153	157.654	159.740	330.210	285.208	310.838
263588.832	80.168	112.653	-11.027	146.031	151.098	321.269	270.903	298.321
263588.840	34.571	69.439	-61.989	111.461	106.096	284.314	230.670	256.002
263588.848	106.096	142.455	15.199	179.112	185.668	345.409	302.196	329.316
263588.856	71.824	107.288	-22.650	143.945	146.329	307.262	261.366	289.381
263588.864	93.579	129.640	-0.298	163.019	169.873	316.203	274.181	297.427
263588.872	95.367	131.428	-3.874	162.423	164.807	323.653	277.162	304.878
263588.880	50.366	84.937	-52.750	120.997	116.825	295.341	244.379	277.460
263588.888	97.752	128.746	-10.729	164.807	178.516	334.680	295.639	312.924
263588.896	70.333	103.414	-35.167	139.177	132.620	317.991	277.460	292.361
263588.918	106.096	136.793	4.172	166.297	171.661	349.581	315.905	334.084
263588.926	72.718	103.712	-47.386	146.031	130.832	319.779	276.864	301.898
263588.934	47.684	78.380	-64.671	122.190	111.759	282.824	230.968	260.174
263588.942	106.692	134.706	1.490	168.979	171.959	338.256	302.196	315.905
263588.950	70.035	96.262	-37.849	133.514	131.726	321.567	275.970	300.705
263588.958	89.407	115.931	-27.418	156.164	149.310	332.594	296.235	317.395
263588.966	64.671	93.579	-62.883	134.110	121.593	314.713	281.632	289.977
263588.974	39.637	66.459	-84.341	103.712	100.732	287.890	239.909	269.115
263588.982	90.599	110.865	-28.610	139.475	156.164	329.614	292.063	315.905
263588.990	71.824	95.665	-52.154	123.680	131.130	325.739	290.871	308.156
263588.998	103.414	126.660	-22.352	163.913	160.336	343.919	314.713	331.998
263589.006	72.122	95.665	-48.876	132.918	124.872	310.838	276.268	286.102
263589.014	52.154	77.188	-72.122	110.269	108.182	299.811	256.896	288.486
263589.022	103.116	126.362	-26.822	159.442	164.211	346.005	323.951	333.488
263589.030	52.154	72.718	-83.148	102.222	106.394	311.136	284.910	297.129
263589.038	66.459	82.850	-65.863	111.759	113.547	298.917	270.009	289.381
263589.046	81.360	98.944	-59.605	137.389	122.190	312.030	280.440	304.282
263589.054	62.883	80.168	-65.565	119.805	114.143	300.407	267.327	300.407
263589.062	98.646	115.335	-30.100	147.521	161.231	333.190	316.203	327.826
263589.070	57.817	74.506	-72.420	108.182	115.037	306.666	285.506	301.599
263589.078	85.235	100.136	-46.492	137.389	141.561	316.501	302.196	318.587
263589.086	51.558	69.439	-85.533	110.269	103.116	284.910	268.221	279.248
263589.094	41.723	57.518	-96.858	95.963	92.685	283.420	257.492	284.612
263589.102	78.082	89.407	-54.240	124.872	127.256	306.070	288.188	304.580
263589.110	50.664	61.989	-84.937	95.367	106.990	286.400	268.221	281.036
263589.118	81.956	93.877	-53.346	130.534	136.495	315.309	292.957	318.587
263589.126	52.750	65.565	-78.082	103.414	99.838	283.122	266.135	280.142
263589.134	28.610	41.425	-104.308	74.804	80.764	256.002	235.140	261.664
263589.140	64.373	78.082	-74.506	119.209	122.786	281.632	270.009	287.890
263589.148	37.551	51.558	-95.069	90.897	98.348	270.605	256.598	275.075
263589.156	56.028	71.526	-73.016	112.057	111.759	277.460	270.903	280.440
263589.164	56.028	65.863	-74.506	97.454	107.884	271.499	261.962	275.075
263589.172	41.127	53.346	-88.215	85.235	98.646	261.068	248.849	271.201
263589.180	79.572	92.387	-54.240	127.554	134.706	281.930	278.354	289.381
263589.188	25.630	33.975	-107.884	68.545	72.718	229.776	219.345	235.438
263589.196	53.644	61.393	-73.612	96.262	105.202	249.147	244.081	261.664
263589.204	118.613	125.468	-6.258	151.992	174.940	321.567	314.116	333.190
263589.212	132.322	136.197	5.960	164.807	183.582	323.355	312.328	325.441
263589.220	180.304	193.119	50.068	228.286	231.862	366.271	368.655	369.847
263589.228	150.502	162.423	21.458	195.801	200.868	345.409	344.217	347.495
263589.236	182.986	190.139	60.499	218.451	234.544	365.674	363.886	374.913
263589.244	185.370	187.159	58.115	207.126	235.140	365.674	360.012	377.595
263589.252	153.184	152.886	21.458	179.112	199.378	332.296	320.971	345.409
263589.260	182.688	182.986	45.598	208.616	229.478	348.091	351.965	350.773
263589.268	123.382	126.660	-11.921	151.992	167.489	306.070	298.321	306.368
263589.276	152.290	154.972	28.908	179.410	201.762	329.912	323.355	333.488
263589.284	157.952	164.211	34.571	185.966	205.040	342.727	337.064	343.919
263589.292	137.091	140.667	16.093	164.509	184.476	320.077	306.368	321.567
263589.300	177.622	180.006	56.028	207.722	233.352	340.343	338.852	336.766
263589.308	128.746	129.044	8.345	149.310	181.198	297.725	296.831	295.341
263589.316	150.502	154.078	35.763	175.536	196.993	300.109	300.109	310.540
263589.324	160.038	165.701	44.405	187.159	203.252	304.282	302.196	315.011
263589.332	123.084	125.468	-2.384	147.820	165.105	274.479	276.566	279.546
263589.340	155.568	155.866	31.888	171.065	204.146	296.831	306.666	303.686
263589.348	112.355	111.461	0.000	125.468	159.144	252.128	247.061	256.598
263589.356	132.620	134.110	14.305	152.290	175.238	269.413	264.347	274.479
263589.363	137.091	141.561	15.497	160.038	175.238	276.566	274.777	284.016
263589.371	104.904	105.202	-11.325	121.891	149.906	244.081	231.564	251.234
263589.379	138.581	136.793	21.458	145.137	182.092	265.539	265.539	262.558
263589.387	93.579	88.513	-25.034	95.963	128.448	222.623	219.643	216.365
263589.395	126.660	123.084	15.497	137.091	170.469	251.830	254.810	251.532
263589.403	118.017	114.143	13.411	128.448	162.721	227.392	227.690	229.180
263589.411	50.962	48.876	-61.691	63.777	95.367	158.548	153.780	157.654
263589.419	100.434	100.434	-22.352	108.480	139.773	210.106	211.895	212.193
263589.427	58.413	47.982	-49.770	45.896	87.321	161.827	156.760	160.635
263589.435	88.811	83.447	-11.325	87.321	122.786	174.940	178.814	180.006
263589.443	83.148	79.572	-23.246	86.129	118.315	175.834	179.708	177.622
263589.451	54.836	42.915	-53.942	43.213	85.831	151.694	148.118	160.038
263589.459	113.249	100.732	19.670	101.030	149.012	185.072	188.053	184.774
263589.467	92.089	78.082	-4.768	90.897	124.276	164.211	160.635	164.509
263589.475	73.314	61.691	-26.822	64.373	110.865	140.071	133.514	143.051
263589.483	56.028	45.896	-48.280	45.300	86.129	128.746	123.978	127.256
263589.491	43.809	31.292	-53.942	29.206	72.122	113.845	106.990	112.653
263589.499	86.129	70.930	-8.941	70.333	114.441	149.906	152.588	157.356
263589.507	51.558	33.379	-39.339	29.504	80.168	113.249	111.461	115.037
263589.515	81.062	61.989	-8.941	57.518	114.143	127.554	129.938	127.852
263589.523	83.148	68.843	-3.278	59.903	112.057	127.256	124.872	123.084
263589.531	48.578	35.763	-32.485	29.504	70.632	104.904	100.136	100.136
263589.539	113.249	93.281	22.054	90.301	142.753	147.820	149.012	150.800
263589.547	40.829	23.544	-57.220	15.199	66.161	84.341	83.148	78.082
263589.555	67.949	51.260	-13.709	37.253	87.321	97.752	99.540	93.877
263589.563	92.685	74.506	7.749	63.479	105.202	123.382	121.891	119.209
263589.571	42.617	21.458	-39.935	14.305	57.220	74.506	68.545	65.863
263589.579	75.400	55.730	-8.047	48.280	96.262	92.685	97.752	82.850
263589.602	28.014	4.172	-55.134	-7.451	47.982	49.174	40.233	45.002
263589.610	59.307	35.167	-20.266	19.968	78.082	65.267	62.287	65.267
263589.618	71.228	46.790	-2.384	24.736	87.917	70.930	65.565	74.804
263589.626	40.531	16.689	-36.657	-4.768	55.134	44.405	34.273	46.790
263589.634	54.538	31.888	-23.842	13.113	63.181	39.935	39.041	38.743
263589.642	30.100	2.384	-44.703	-20.266	39.637	27.418	19.968	24.140
263589.650	103.414	73.016	35.763	45.598	115.037	75.996	73.910	79.274
263589.658	97.156	68.545	25.630	39.637	106.990	61.691	58.115	64.373
263589.666	54.240	27.716	-23.544	2.086	67.949	13.709	7.153	12.517
263589.674	103.712	77.784	26.226	51.260	109.076	53.644	58.413	50.962
263589.682	80.168	47.982	10.431	18.775	87.321	33.677	27.716	39.041
263589.690	108.778	77.486	45.300	52.452	112.355	52.154	51.260	60.499
263589.698	67.949	38.743	-0.596	5.960	65.863	18.775	25.034	11.921
263589.706	49.174	17.583	-14.603	-10.431	57.220	-5.662	-10.431	-2.980
263589.714	116.229	81.062	57.518	47.982	122.488	53.346	56.028	58.711
263589.722	72.122	38.147	8.643	4.172	70.632	18.179	6.258	26.226
263589.730	84.937	50.664	26.226	21.756	83.148	19.372	19.670	25.928
263589.738	80.764	47.088	25.332	11.027	82.850	18.179	17.583	18.775
263589.746	46.790	11.325	-6.557	-25.034	50.366	-11.027	-21.160	-5.960
263589.754	92.685	59.009	42.319	28.312	92.089	24.140	22.650	26.822
263589.762	99.838	65.565	49.174	26.226	96.560	32.187	27.418	42.915
263589.770	102.818	68.545	55.730	31.292	96.560	20.266	18.179	30.398
263589.778	99.242	64.075	56.028	21.756	100.732	17.285	19.968	26.822
263589.786	37.849	2.980	-4.172	-48.876	41.127	-33.081	-35.465	-25.034
263589.794	102.222	67.353	56.624	20.266	99.540	14.603	20.862	28.014
263589.802	65.863	22.948	11.623	-27.418	61.095	-22.948	-17.583	-5.066
263589.810	89.705	47.982	41.127	2.384	87.619	-4.470	12.517	15.795
263589.818	60.499	19.968	21.458	-30.398	56.922	-34.273	-19.670	-20.266
263589.806	-2.384	-45.598	-33.975	-101.626	-9.537	-92.983	-91.195	-68.545
263589.814	27.716	-12.219	-7.153	-55.730	24.140	-74.506	-63.777	-46.492
263589.822	-8.345	-46.194	-46.790	-84.341	-13.113	-90.003	-83.745	-59.605
263589.830	31.590	-7.749	-1.788	-52.452	33.677	-59.605	-39.339	-27.716
263589.838	3.278	-38.445	-33.975	-82.552	3.278	-92.387	-67.949	-69.141
263589.846	-17.285	-59.903	-52.452	-102.818	-16.093	-101.626	-84.937	-74.208
263589.854	36.359	-0.894	0.596	-39.935	26.822	-57.220	-36.657	-29.206
263589.862	-33.081	-69.737	-64.075	-110.865	-47.088	-120.401	-108.480	-93.281
263589.870	-1.490	-39.637	-30.696	-83.447	-5.066	-94.771	-75.102	-66.757
263589.878	3.278	-37.253	-29.802	-86.725	-3.278	-85.235	-64.969	-56.028
263589.886	-8.941	-53.644	-38.743	-103.414	-13.411	-95.367	-80.764	-57.817
263589.894	18.775	-25.332	-7.451	-78.976	11.027	-85.235	-56.326	-56.624
263589.902	-52.452	-92.685	-74.208	-147.820	-74.804	-143.349	-123.680	-115.335
263589.910	-8.345	-47.982	-23.544	-103.116	-16.987	-114.441	-92.089	-79.572
263589.918	-4.470	-44.405	-24.140	-103.414	-9.835	-98.050	-73.910	-62.883
263589.926	-55.730	-95.367	-81.062	-146.031	-67.353	-156.164	-131.428	-126.064
263589.934	-2.384	-38.445	-14.305	-86.129	-16.689	-112.951	-84.639	-78.380
263589.942	-54.538	-94.175	-61.691	-150.204	-64.671	-150.502	-135.005	-113.547
263589.950	-16.689	-61.095	-33.975	-121.295	-30.100	-126.064	-102.520	-82.850
263589.958	-30.100	-70.632	-46.492	-132.024	-50.962	-136.793	-113.845	-102.222
263589.966	-46.790	-88.513	-53.346	-147.223	-57.518	-152.588	-133.812	-114.739
263589.974	7.451	-33.975	-3.874	-85.831	-2.384	-103.116	-70.930	-66.757
263589.982	-59.605	-101.030	-64.671	-156.164	-74.208	-161.827	-142.455	-127.852
263589.990	-28.908	-72.420	-32.187	-131.726	-45.300	-153.482	-129.342	-125.766
263589.998	-27.120	-71.526	-27.120	-130.534	-48.280	-147.820	-122.190	-124.872
263590.006	-40.829	-82.254	-31.292	-140.369	-59.605	-157.356	-140.369	-125.766
263590.014	6.855	-35.763	10.729	-93.579	-8.345	-122.190	-97.454	-86.129
263590.022	-56.326	-101.626	-50.366	-160.635	-73.314	-182.986	-165.701	-156.760
263590.028	1.490	-42.319	10.431	-98.646	-22.054	-159.740	-132.918	-133.216
263590.036	48.876	8.345	53.346	-49.174	14.007	-137.389	-108.480	-111.163
263590.044	57.220	19.372	56.326	-41.723	11.027	-154.376	-130.534	-128.150
263590.052	139.773	110.269	127.256	48.876	62.585	-140.071	-104.308	-117.421
263590.060	151.098	123.382	130.832	63.479	59.307	-173.151	-149.012	-150.204
263590.068	207.126	178.814	199.080	118.017	107.288	-154.674	-123.382	-133.514
263590.076	220.537	190.437	215.471	125.766	115.037	-148.714	-115.335	-127.852
263590.084	201.762	169.873	194.311	107.586	95.367	-170.171	-141.561	-145.137
263590.092	242.889	212.491	240.505	149.608	140.667	-135.303	-98.348	-114.739
263590.100	168.979	135.005	172.257	63.181	75.102	-186.265	-160.635	-167.489
263590.108	179.112	139.475	187.755	75.400	95.069	-180.304	-142.455	-163.615
263590.116	127.554	92.387	133.514	38.743	51.558	-211.000	-176.132	-195.205
263590.124	92.983	53.346	109.375	-0.894	17.881	-222.623	-199.974	-201.464
263590.132	103.712	63.479	126.958	0.596	26.524	-199.378	-171.661	-183.880
263590.140	48.876	10.729	75.102	-57.518	-11.623	-225.902	-203.252	-207.722
263590.148	78.678	42.319	101.328	-15.497	22.948	-191.331	-153.184	-174.344
263590.156	45.002	5.662	67.353	-55.134	-5.066	-212.491	-182.986	-202.656
263590.164	-19.968	-61.393	-1.192	-120.699	-66.757	-258.088	-232.756	-240.803
263590.172	13.411	-30.398	41.425	-81.062	-43.511	-232.160	-191.629	-216.067
263590.180	-37.253	-85.533	2.980	-139.177	-86.129	-260.472	-236.630	-241.101
263590.188	11.921	-33.975	56.326	-85.235	-28.312	-215.471	-189.841	-196.099
263590.196	-3.576	-47.684	32.485	-99.540	-44.703	-228.286	-200.570	-215.769
263590.204	-56.028	-103.414	-20.862	-163.317	-96.262	-269.413	-247.955	-256.896
263590.212	-14.305	-59.009	27.418	-116.825	-57.518	-223.517	-192.821	-213.981
263590.220	-69.439	-114.739	-28.908	-172.555	-113.249	-270.009	-249.743	-263.155
263590.228	-8.047	-60.201	41.425	-116.229	-51.558	-230.074	-205.040	-223.219
263590.236	-17.285	-67.055	26.226	-116.527	-58.413	-231.862	-207.424	-233.054
263590.244	-39.637	-85.533	8.643	-134.408	-75.102	-251.830	-230.372	-243.783
263590.266	15.497	-31.888	64.671	-81.360	-28.908	-206.530	-182.688	-191.629
263590.274	-65.565	-119.507	-12.517	-178.814	-111.461	-286.996	-264.049	-286.698
263590.282	-18.477	-70.632	35.465	-124.872	-62.287	-252.724	-223.815	-245.273
263590.290	-1.192	-52.452	56.624	-104.010	-40.829	-235.736	-212.789	-224.411
263590.298	-24.736	-73.910	34.869	-128.746	-60.201	-246.763	-222.027	-241.697
263590.306	30.994	-15.795	89.705	-70.333	-11.325	-202.358	-164.807	-201.166
263590.314	-31.888	-78.678	27.716	-132.024	-78.380	-255.406	-228.584	-252.426
263590.322	9.835	-38.743	72.122	-91.493	-29.206	-224.710	-189.543	-217.855
263590.330	21.160	-27.120	86.129	-77.188	-18.477	-215.471	-187.159	-207.126
263590.338	-17.285	-62.287	47.684	-115.335	-61.989	-256.598	-239.611	-251.234
263590.346	37.849	-8.941	88.811	-65.267	-9.835	-201.762	-168.085	-204.146
263590.354	-12.815	-61.393	54.538	-115.633	-48.876	-240.207	-221.133	-244.379
263590.362	28.014	-23.246	109.375	-77.188	-10.729	-215.769	-193.417	-214.279
263590.370	32.187	-19.968	106.692	-73.910	-8.941	-210.106	-184.178	-213.087
263590.378	19.073	-30.994	86.129	-81.956	-16.093	-224.411	-199.974	-229.776
263590.386	57.817	12.219	127.852	-33.975	13.411	-189.543	-153.184	-196.695
263590.394	27.716	-16.987	101.626	-70.333	-16.987	-216.067	-192.821	-219.345
263590.402	83.447	39.935	152.588	-12.517	43.213	-175.238	-148.714	-173.748
263590.410	78.380	33.975	145.733	-18.477	44.107	-182.390	-154.972	-185.370
263590.418	63.181	15.795	138.283	-41.127	19.670	-201.762	-180.304	-205.338
263590.426	77.188	34.571	160.336	-25.034	30.398	-196.099	-163.913	-211.000
263590.434	63.181	17.285	138.283	-32.485	23.246	-197.887	-181.794	-205.338
263590.442	90.599	46.194	164.509	-1.788	44.405	-171.065	-149.906	-181.496
263590.450	78.976	31.590	147.521	-20.564	28.908	-180.006	-156.760	-196.099
263590.458	71.824	22.650	148.118	-26.524	21.756	-191.331	-174.642	-201.762
263590.466	110.269	64.969	188.649	21.756	67.055	-165.105	-132.620	-182.688
263590.474	65.863	21.160	139.177	-20.862	25.034	-195.801	-173.748	-209.808
263590.482	125.468	86.725	196.397	50.962	76.890	-152.290	-126.958	-158.846
263590.489	105.500	68.843	175.834	28.014	56.624	-158.846	-128.746	-171.363
263590.497	70.632	28.014	145.435	-18.179	21.160	-193.715	-165.701	-207.424
263590.505	112.057	73.910	183.582	26.822	61.989	-143.647	-105.500	-161.529
263590.513	62.287	23.246	117.421	-21.160	7.153	-188.053	-166.297	-208.020
263590.521	119.805	82.850	189.245	47.386	66.459	-152.886	-123.382	-161.529
263590.529	118.613	80.764	198.781	48.578	70.035	-147.820	-112.057	-160.336
263590.537	83.148	43.511	165.105	13.113	28.312	-174.940	-147.820	-183.880
263590.545	124.574	87.917	200.570	61.095	79.274	-137.687	-107.288	-149.012
263590.553	64.373	27.716	136.495	-3.576	22.650	-190.437	-163.913	-210.702
263590.561	125.468	90.301	205.636	53.048	80.764	-130.832	-99.242	-144.839
263590.569	132.322	101.030	206.232	68.843	81.956	-109.673	-86.129	-117.719
263590.577	130.236	98.646	205.934	68.545	95.367	-110.567	-90.897	-121.593
263590.585	165.105	135.601	248.849	101.328	123.382	-89.109	-54.240	-105.798
263590.593	107.288	76.890	186.563	46.790	59.903	-137.985	-118.315	-147.820
263590.601	114.441	84.639	191.629	61.393	65.267	-137.687	-109.971	-153.780
263590.609	129.640	98.348	207.722	68.545	74.208	-109.076	-82.850	-123.084
263590.617	135.005	104.010	215.173	83.447	92.983	-105.798	-88.215	-113.845
263590.625	169.575	141.859	240.803	124.276	120.103	-76.890	-41.723	-90.599
263590.633	90.003	59.307	160.933	34.571	40.233	-147.820	-115.335	-175.536
263590.641	110.269	78.082	185.668	58.711	52.452	-140.369	-102.818	-160.336
263590.649	115.931	90.599	192.523	73.314	63.181	-120.699	-86.725	-134.408
263590.657	112.951	86.725	185.072	62.287	64.075	-118.613	-88.811	-126.660
263590.665	157.058	131.726	233.948	109.673	96.262	-89.109	-50.366	-100.136
263590.673	87.023	61.095	160.038	38.147	22.948	-144.839	-122.786	-161.827
263590.681	117.421	92.089	187.159	67.055	53.346	-120.997	-94.473	-137.389
263590.689	120.103	97.156	181.496	71.824	54.836	-108.778	-76.592	-126.660
263590.697	80.466	57.518	136.197	27.418	19.670	-149.906	-126.660	-163.019
263590.705	118.315	99.540	181.794	68.843	49.472	-119.805	-87.023	-139.177
263590.713	102.520	78.976	171.959	45.896	37.849	-123.680	-94.473	-140.965
263590.721	122.786	98.050	180.900	67.055	46.492	-110.865	-67.353	-132.620
263590.729	105.202	81.956	155.568	42.319	37.551	-130.832	-98.944	-161.231
263590.737	89.109	68.843	131.428	31.590	13.709	-147.820	-127.256	-172.555
263590.745	134.408	117.421	180.602	87.023	49.174	-112.653	-78.380	-139.773
263590.753	96.560	77.188	146.925	40.829	17.583	-142.753	-114.739	-161.827
263590.761	123.084	101.924	177.622	60.797	35.167	-132.024	-105.798	-148.714
263590.769	119.805	102.222	163.019	59.903	22.054	-122.488	-86.129	-149.608
263590.777	117.719	104.010	154.674	66.757	22.650	-138.879	-107.586	-163.317
263590.785	138.283	129.044	173.450	88.811	34.869	-142.455	-112.653	-175.536
263590.793	120.103	112.653	144.243	67.949	18.179	-148.416	-129.044	-176.132
263590.801	188.053	177.920	214.279	126.660	92.685	-99.540	-71.228	-119.805
263590.809	185.072	174.046	204.444	120.997	73.910	-95.963	-56.922	-119.209
263590.817	112.355	104.606	126.362	46.194	-11.325	-148.714	-102.222	-175.536
263590.825	167.191	166.893	177.622	116.229	36.955	-109.076	-80.466	-132.918
263590.833	160.336	156.164	175.536	102.222	49.174	-134.706	-128.746	-151.694
263590.841	163.317	169.277	168.979	110.567	19.968	-123.680	-101.030	-149.906
263590.849	154.376	153.780	151.098	86.427	11.921	-137.389	-105.500	-184.476
263590.857	168.979	164.807	171.363	105.202	37.849	-121.891	-98.050	-144.541
263590.865	199.974	198.483	208.616	134.408	64.671	-89.407	-65.565	-103.712
263590.873	128.150	129.342	119.507	54.836	-13.709	-153.184	-137.985	-182.390
263590.881	173.748	173.748	163.317	94.771	26.822	-134.408	-108.778	-173.450
263590.889	165.701	166.595	152.290	93.877	5.662	-136.495	-115.633	-174.344
263590.897	147.820	151.694	121.593	93.281	-28.014	-148.714	-132.918	-191.331
263590.905	191.331	192.225	165.403	120.997	28.610	-115.931	-91.493	-166.297
263590.913	146.031	146.925	115.335	73.314	-30.994	-132.620	-132.024	-162.423
263590.921	177.324	180.006	158.548	101.626	-5.960	-116.825	-108.778	-149.012
263590.929	162.721	166.893	144.541	92.685	-11.027	-132.918	-126.064	-163.019
263590.935	143.945	146.627	113.547	68.843	-31.888	-143.349	-150.204	-174.940
263590.943	190.139	194.609	160.635	113.249	12.517	-107.586	-90.301	-166.595
263590.951	154.376	157.952	123.382	76.890	-25.034	-126.064	-118.017	-170.171
263590.959	178.218	182.390	139.773	99.838	-21.458	-126.362	-123.382	-165.105
263590.967	142.157	149.012	101.924	63.181	-53.048	-172.555	-170.469	-236.034
263590.975	146.627	154.078	112.057	65.863	-37.849	-145.733	-149.608	-190.437
263590.983	197.887	205.636	159.740	111.163	17.881	-107.288	-97.156	-147.820
263590.991	140.667	148.714	87.619	61.691	-56.624	-149.608	-142.157	-200.868
263590.999	186.265	194.013	143.051	109.673	-12.815	-117.421	-108.778	-171.661
263591.007	184.476	190.139	144.243	108.182	-8.941	-106.990	-109.673	-147.223
263591.015	128.150	135.601	79.274	54.538	-70.930	-168.085	-162.423	-225.306
263591.023	182.986	191.033	135.005	102.818	-19.073	-107.586	-91.493	-163.615
263591.031	135.005	145.137	86.725	60.499	-66.757	-139.773	-139.773	-193.119
263591.039	183.880	191.927	139.475	104.308	-14.901	-95.665	-88.215	-149.608
263591.047	188.947	197.887	143.647	115.037	-14.901	-87.619	-86.129	-138.283
263591.055	124.872	135.899	89.407	51.558	-81.956	-149.012	-148.416	-207.722
263591.063	162.721	173.748	125.468	94.175	-31.888	-115.931	-105.798	-169.575
263591.071	117.123	127.256	61.095	53.644	-88.215	-141.561	-137.389	-188.351
263591.079	168.681	173.748	126.958	98.050	-47.982	-110.865	-110.865	-162.423
263591.087	148.714	155.866	118.315	79.274	-56.922	-124.872	-125.170	-194.907
263591.095	117.719	130.236	84.639	56.624	-99.242	-141.263	-148.714	-203.252
263591.103	175.238	186.563	140.369	116.527	-33.975	-91.791	-87.619	-151.992
263591.111	132.024	138.283	97.752	63.479	-59.903	-120.997	-135.303	-183.880
263591.119	151.098	158.846	110.865	85.533	-51.856	-123.084	-128.150	-194.013
263591.127	167.787	176.728	131.130	102.222	-42.021	-104.606	-104.010	-171.959
263591.135	146.925	153.184	120.699	74.208	-64.671	-137.389	-153.184	-204.742
263591.143	191.927	199.676	158.548	121.593	-8.047	-87.917	-89.109	-154.376
263591.151	154.972	165.403	123.382	96.262	-37.551	-101.030	-104.308	-158.846
263591.155	164.807	175.834	142.157	112.355	-45.896	-100.136	-102.222	-161.529
263591.163	142.753	151.992	114.143	85.533	-65.565	-115.633	-117.123	-191.927
263591.171	120.699	125.766	106.096	61.393	-75.102	-134.408	-144.541	-203.550
263591.179	162.423	169.277	152.886	106.692	-24.736	-82.552	-85.831	-151.992
263591.187	138.581	145.435	123.084	78.678	-42.021	-87.917	-108.480	-156.164
263591.195	154.972	165.999	140.071	95.367	-32.485	-80.466	-93.579	-154.376
263591.203	166.893	176.430	158.250	109.375	-18.775	-65.565	-79.870	-139.475
263591.211	159.144	169.575	141.859	108.480	-31.292	-60.499	-78.082	-132.918
263591.219	188.053	198.185	185.370	142.157	6.557	-33.081	-50.664	-97.454
263591.227	135.601	143.945	137.687	98.348	-43.213	-71.526	-94.473	-137.389
263591.235	159.740	168.681	163.913	122.488	-12.815	-47.386	-58.413	-124.276
263591.243	151.098	157.654	154.972	109.375	-14.603	-23.842	-32.187	-103.712
263591.251	132.620	134.408	147.223	85.831	-29.504	-36.955	-57.220	-114.739
263591.259	160.038	165.999	188.053	120.997	-0.298	-2.682	-18.179	-76.294
263591.267	104.308	110.865	126.362	75.400	-51.260	-39.339	-56.624	-115.335
263591.275	135.303	143.945	157.654	116.825	-11.027	-2.980	-16.391	-73.016
263591.283	128.746	133.514	157.654	100.732	-8.345	-3.576	-19.968	-78.082
263591.291	85.235	88.513	119.209	61.989	-51.856	-47.684	-61.393	-131.428
263591.299	126.660	133.216	158.250	110.865	-10.729	17.285	11.623	-66.757
263591.307	78.380	82.552	117.123	64.671	-59.903	-11.921	-25.928	-99.838
263591.315	99.540	103.414	148.118	84.341	-21.756	-2.086	-14.901	-86.129
263591.323	74.208	80.764	115.335	63.479	-43.213	-13.709	-27.418	-99.838
263591.331	65.863	73.314	99.540	65.267	-51.558	-0.894	-23.544	-76.890
263591.339	73.910	81.062	118.613	78.082	-34.869	5.960	-2.384	-82.850
263591.347	12.219	16.391	67.353	16.987	-95.963	-28.014	-47.088	-112.355
263591.355	68.843	75.102	133.514	79.274	-34.571	27.418	15.795	-55.730
263591.363	44.107	46.194	114.739	47.386	-47.088	20.862	7.749	-70.333
263591.371	28.014	31.888	97.156	37.849	-65.267	-2.384	-24.736	-87.321
263591.378	38.445	45.896	107.586	53.644	-52.452	6.258	-5.960	-74.208
263591.386	-2.980	9.239	65.565	19.372	-85.235	-13.411	-31.590	-100.434
263591.394	42.319	53.346	114.143	62.585	-31.292	22.352	8.047	-57.518
263591.402	3.874	16.391	71.228	27.716	-68.545	-0.596	-19.670	-85.533
263591.410	-23.246	-11.325	47.088	3.874	-100.732	-16.689	-38.743	-95.069
263591.418	9.239	20.862	84.639	38.445	-69.737	5.662	1.490	-78.976
263591.426	-39.339	-24.140	35.167	-5.364	-109.076	-28.312	-41.723	-112.951
263591.434	0.298	13.411	79.870	35.465	-63.181	11.623	2.682	-68.545
263591.442	2.384	15.795	84.341	30.100	-52.154	13.709	0.894	-65.267
263591.450	-6.258	11.623	65.267	31.292	-62.585	15.199	-4.768	-61.095
263591.458	30.696	42.021	111.759	64.969	-24.736	39.637	30.994	-45.598
263591.466	-25.630	-14.305	56.624	4.470	-72.122	6.557	-11.623	-72.718
263591.474	-15.795	2.384	61.095	27.418	-63.479	16.987	-2.384	-59.009
263591.482	-19.073	-2.384	58.711	19.968	-56.922	22.948	5.364	-50.068
263591.490	-28.908	-15.199	54.240	10.431	-69.439	2.980	-14.007	-74.804
263591.498	16.093	35.763	86.427	70.333	-34.273	53.346	46.790	-24.736
263591.506	-33.081	-16.093	43.511	22.054	-68.247	18.477	-2.384	-50.962
263591.514	-19.073	-0.596	69.737	35.465	-42.617	30.994	18.775	-39.041
263591.522	-18.179	2.980	65.565	28.312	-43.511	34.869	22.650	-36.359
263591.530	-46.492	-29.504	36.061	1.788	-75.102	5.364	-12.517	-66.459
263591.538	14.603	34.869	95.069	73.910	-9.537	70.035	68.545	4.172
263591.546	-32.783	-10.133	49.174	28.014	-56.326	42.319	23.842	-22.352
263591.554	-36.061	-15.795	38.445	12.517	-49.472	32.187	19.372	-31.888
263591.562	-54.240	-30.398	3.576	0.894	-76.294	30.398	12.815	-38.147
263591.570	-77.486	-54.240	5.066	-15.795	-99.838	8.941	-16.093	-56.624
263591.578	-24.736	-0.298	63.479	36.359	-35.465	51.558	42.319	-14.901
263591.586	-70.930	-44.405	10.729	-7.153	-74.506	22.650	0.298	-38.445
263591.594	-59.009	-31.888	20.564	11.027	-69.737	21.160	0.596	-43.809
263591.600	-47.386	-20.266	27.120	26.822	-54.538	32.485	20.266	-37.253
263591.608	-73.612	-47.684	-4.470	-1.788	-73.314	16.391	-2.086	-50.664
263591.616	-45.300	-18.775	24.140	26.226	-38.743	59.009	47.386	-4.470
263591.624	-104.308	-79.572	-37.253	-34.869	-96.560	5.364	-18.477	-62.883
263591.632	-30.994	-5.364	38.445	37.551	-26.524	47.982	36.061	-17.583
263591.640	-12.219	17.285	53.644	67.949	-8.643	70.632	54.538	5.960
263591.648	-18.179	17.881	36.955	69.737	-23.842	43.511	22.650	-19.372
263591.656	70.930	112.057	118.017	164.211	57.518	90.301	81.658	31.292
263591.664	77.784	124.574	114.739	188.351	43.809	64.969	52.154	3.874
263591.672	156.164	205.636	185.668	271.201	103.116	84.341	75.996	23.246
263591.680	190.437	239.611	214.577	298.619	129.640	89.705	76.890	32.783
263591.688	205.934	252.128	225.604	308.454	141.561	86.725	70.035	34.273
263591.696	253.618	300.109	267.625	351.965	184.774	123.978	115.633	76.890
263591.704	187.755	233.948	201.762	284.612	113.845	76.592	61.691	22.650
263591.712	207.424	258.088	225.902	309.944	143.945	99.242	93.579	39.637
263591.720	226.796	272.989	237.226	319.779	174.046	133.514	125.766	72.122
263591.728	208.914	253.916	221.133	303.686	165.105	128.150	112.355	79.274
263591.736	214.875	260.770	232.756	322.461	172.555	149.012	143.647	94.175
263591.744	146.031	192.225	162.721	256.598	113.845	121.891	107.884	61.393
263591.752	174.344	217.855	193.119	275.671	159.442	174.344	157.952	122.488
263591.760	153.482	192.225	181.198	247.359	149.012	185.072	168.681	139.773
263591.768	60.499	98.050	82.850	154.376	66.161	120.401	109.673	61.393
263591.776	65.863	102.520	77.784	156.760	82.254	155.568	150.502	98.348
263591.784	27.418	61.989	36.955	121.295	55.134	146.329	131.428	88.513
263591.792	29.504	61.691	50.068	118.017	69.141	162.423	150.800	114.739
263591.800	10.729	40.829	28.014	90.599	54.538	174.642	158.548	134.706
263591.808	-16.093	9.835	3.576	63.479	42.617	158.250	138.879	119.805
263591.816	4.470	35.465	18.775	92.983	48.876	186.563	177.026	144.839
263591.821	-66.459	-39.339	-56.326	19.073	-19.073	143.349	123.084	92.089
263591.829	-51.260	-23.842	-37.253	35.167	9.537	160.038	148.714	97.454
263591.837	-67.353	-41.425	-50.962	21.756	3.576	159.144	148.416	100.732
263591.845	-84.937	-56.028	-68.247	14.603	-12.517	158.548	136.495	106.096
263591.853	-50.962	-24.438	-41.723	38.147	25.630	198.483	183.880	140.369
263591.861	-125.170	-99.838	-124.872	-37.253	-49.472	151.694	127.554	99.540
263591.869	-118.613	-94.473	-115.335	-24.140	-46.790	158.846	138.581	106.394
263591.877	-144.839	-120.699	-151.396	-52.750	-70.333	144.541	120.103	87.917
263591.885	-162.721	-136.793	-166.297	-71.228	-68.247	145.733	111.163	95.963
263591.893	-140.071	-113.547	-146.925	-49.770	-51.856	163.913	137.687	119.209
263591.901	-208.020	-186.563	-214.577	-115.931	-137.985	99.838	70.035	51.260
263591.909	-156.462	-137.389	-157.058	-66.459	-68.545	132.620	116.229	89.407
263591.917	-158.548	-140.369	-168.383	-73.016	-64.969	135.303	120.401	93.281
263591.925	-197.887	-170.767	-213.385	-104.606	-101.328	118.613	94.473	82.552
263591.933	-197.589	-169.575	-206.828	-99.838	-103.116	116.229	102.818	72.420
263591.941	-240.803	-218.749	-249.743	-142.157	-148.416	84.937	66.161	37.849
263591.949	-169.575	-147.820	-185.668	-66.757	-79.572	144.839	135.899	101.924
263591.957	-170.767	-147.820	-190.437	-69.737	-79.572	152.886	140.667	109.375
263591.965	-212.491	-186.861	-231.564	-106.990	-126.660	116.527	99.242	71.526
263591.973	-221.431	-198.185	-231.266	-128.150	-124.872	103.414	92.685	64.075
263591.981	-292.063	-270.307	-304.580	-197.589	-192.821	55.432	36.657	17.285
263591.989	-253.916	-227.988	-269.115	-153.780	-151.992	84.937	74.506	48.876
263591.997	-291.765	-262.856	-306.964	-178.516	-183.284	46.790	31.888	14.901
263592.005	-295.937	-272.393	-313.818	-186.265	-182.986	53.644	39.935	25.034
263592.013	-277.460	-253.916	-292.659	-177.622	-163.317	76.890	73.612	51.558
263592.021	-367.463	-338.554	-395.179	-257.194	-255.108	9.239	-6.557	-18.775
263592.029	-323.951	-295.043	-356.138	-221.729	-212.789	53.346	41.127	33.975
263592.037	-355.542	-330.210	-376.403	-259.578	-235.736	27.716	18.477	1.788
263592.044	-374.317	-348.091	-393.689	-267.327	-254.214	2.086	-5.960	-23.246
263592.052	-328.124	-303.984	-348.091	-228.882	-202.656	47.982	49.472	29.802
263592.060	-390.112	-367.165	-419.319	-299.513	-264.943	1.490	-14.007	-13.709
263592.068	-338.554	-315.309	-376.701	-241.101	-218.451	37.253	24.140	17.881
263592.076	-362.992	-339.150	-398.755	-254.214	-247.657	28.610	16.689	3.874
263592.084	-376.701	-353.158	-408.888	-264.943	-253.022	21.756	10.431	2.682
263592.092	-323.951	-295.937	-370.443	-208.020	-199.676	56.028	50.068	39.041
263592.100	-352.561	-332.892	-383.556	-250.638	-224.113	27.716	12.219	11.325
263592.108	-302.196	-280.440	-327.528	-199.080	-172.257	74.804	69.141	61.095
263592.116	-317.395	-295.937	-356.138	-221.729	-188.947	60.797	55.730	43.213
263592.124	-339.150	-317.991	-380.278	-236.630	-215.173	34.869	22.948	18.775
263592.132	-304.878	-284.314	-344.515	-202.358	-189.841	50.068	46.790	25.332
263592.140	-329.614	-306.964	-375.509	-217.259	-215.173	33.379	22.054	17.285
263592.148	-280.440	-261.068	-324.249	-165.105	-156.760	69.141	64.075	64.969
263592.156	-312.924	-292.361	-356.436	-203.848	-184.178	37.551	28.610	17.881
263592.164	-347.197	-321.567	-402.927	-233.650	-233.352	10.729	0.000	-14.603
263592.172	-301.898	-272.095	-351.965	-177.622	-185.370	42.915	37.253	17.583
263592.180	-322.163	-301.898	-354.946	-209.212	-188.351	25.332	6.258	18.179
263592.188	-294.745	-273.883	-331.700	-185.370	-166.595	40.233	29.802	39.935
263592.196	-318.587	-297.427	-370.145	-212.491	-197.291	14.603	6.557	4.768
263592.204	-326.931	-304.282	-388.324	-215.471	-213.981	8.047	-5.960	0.000
263592.212	-299.811	-279.844	-360.906	-181.496	-194.311	21.458	17.583	15.795
263592.220	-345.707	-324.845	-400.245	-225.604	-230.074	-19.670	-28.908	-31.590
263592.228	-318.289	-298.619	-374.019	-209.212	-200.272	-3.874	-12.219	-16.987
263592.236	-326.335	-311.136	-375.211	-233.650	-206.232	-3.576	-7.153	-14.603
263592.244	-362.098	-343.919	-413.656	-259.876	-244.379	-24.736	-27.716	-35.167
263592.252	-328.124	-306.666	-381.172	-222.623	-205.934	5.066	5.066	-2.086
263592.260	-384.748	-364.184	-439.584	-285.506	-269.115	-32.485	-48.876	-33.081
263592.283	-329.018	-309.348	-379.384	-227.392	-211.596	17.285	14.305	13.411
263592.291	-345.707	-326.037	-396.669	-245.869	-213.385	9.835	6.258	0.000
263592.299	-382.960	-368.357	-433.624	-290.871	-248.253	-22.650	-34.571	-30.100
263592.307	-328.720	-315.309	-386.238	-236.332	-201.166	33.081	28.312	33.081
263592.315	-394.583	-380.278	-456.274	-298.917	-282.824	-27.120	-37.253	-37.849
263592.323	-347.197	-332.594	-393.987	-256.300	-225.902	1.490	-5.960	-2.980
263592.331	-347.197	-328.720	-400.543	-252.426	-215.769	11.921	2.980	7.749
263592.339	-332.892	-314.116	-386.834	-240.207	-200.868	22.352	17.583	19.073
263592.347	-263.453	-247.657	-316.203	-172.853	-138.283	72.122	76.890	70.632
263592.355	-286.698	-270.009	-340.343	-198.781	-155.866	61.095	53.346	60.499
263592.363	-266.731	-249.743	-315.607	-184.476	-140.965	67.651	69.141	67.055
263592.371	-280.440	-264.049	-331.402	-197.887	-159.442	52.452	53.644	54.538
263592.379	-284.612	-267.923	-335.574	-195.801	-163.019	40.233	32.783	46.492
263592.387	-242.889	-224.411	-294.447	-156.462	-119.805	70.035	70.333	73.612
263592.395	-289.083	-275.970	-338.554	-212.193	-168.979	36.359	32.783	34.273
263592.403	-221.133	-204.742	-264.943	-141.859	-98.348	95.367	97.752	94.771
263592.411	-253.618	-237.226	-298.917	-175.238	-132.024	62.287	57.817	61.989
263592.419	-254.214	-239.313	-295.639	-179.410	-133.812	57.817	54.240	61.989
263592.427	-229.180	-211.895	-270.605	-149.012	-119.805	67.949	70.333	64.969
263592.435	-260.770	-242.591	-306.368	-185.966	-154.376	50.366	45.002	52.154
263592.443	-194.311	-179.708	-228.584	-123.680	-87.321	100.136	100.732	110.269
263592.451	-213.683	-199.974	-253.618	-143.349	-110.269	84.043	85.533	77.486
263592.459	-221.133	-206.530	-260.174	-149.906	-116.229	68.545	64.969	67.651
263592.467	-173.748	-156.164	-212.789	-95.665	-70.035	92.387	96.858	94.771
263592.475	-207.722	-191.033	-248.551	-132.918	-101.328	69.439	63.181	74.506
263592.483	-156.760	-143.349	-202.954	-93.281	-43.213	116.229	118.911	125.468
263592.491	-185.072	-168.681	-233.948	-126.064	-82.254	95.665	100.732	95.367
263592.499	-187.457	-170.767	-218.153	-117.421	-91.195	82.850	79.870	89.109
263592.489	-157.058	-143.051	-181.794	-89.109	-65.267	98.646	97.454	104.308
263592.497	-202.656	-187.457	-230.670	-141.561	-99.242	63.777	52.750	68.247
263592.505	-151.992	-139.177	-181.198	-93.579	-44.107	95.665	92.685	99.242
263592.513	-185.370	-172.257	-215.769	-129.044	-78.678	70.333	66.161	72.420
263592.521	-189.245	-177.622	-220.239	-134.706	-90.897	47.088	39.935	49.472
263592.529	-128.746	-118.613	-151.992	-74.506	-32.187	98.348	93.877	104.904
263592.537	-186.861	-179.112	-213.981	-139.177	-87.023	55.730	38.445	61.393
263592.545	-150.204	-144.839	-180.304	-105.202	-51.558	81.360	80.168	87.619
263592.553	-154.674	-148.714	-179.410	-110.269	-53.644	80.168	76.294	83.447
263592.561	-158.846	-151.098	-178.516	-113.845	-60.201	73.612	61.989	80.764
263592.569	-135.303	-124.872	-161.231	-88.513	-47.386	91.791	87.321	97.454
263592.577	-181.198	-169.873	-211.000	-135.601	-80.466	53.346	40.531	57.220
263592.585	-124.872	-116.229	-150.204	-88.513	-28.014	88.513	81.658	95.665
263592.593	-144.243	-140.071	-165.701	-112.653	-44.703	67.353	50.664	81.360
263592.601	-163.019	-157.952	-179.410	-124.872	-76.592	43.213	36.061	50.664
263592.609	-116.825	-109.375	-125.468	-81.360	-26.822	86.129	84.639	99.838
263592.617	-145.435	-136.197	-158.250	-103.116	-48.578	46.790	34.571	60.797
263592.625	-52.154	-45.300	-75.996	-11.921	32.485	131.130	133.812	148.714
263592.633	-99.838	-94.175	-121.295	-62.287	-21.458	79.274	80.466	87.917
263592.641	-126.362	-115.335	-149.012	-79.870	-52.154	45.896	37.253	56.028
263592.649	-78.380	-68.843	-109.076	-38.743	-0.298	85.235	92.983	93.281
263592.657	-123.382	-120.401	-146.627	-99.838	-47.088	56.922	55.432	65.565
263592.665	-76.592	-72.420	-98.646	-38.445	5.662	95.665	99.540	112.057
263592.673	-97.454	-91.493	-118.911	-54.538	-22.054	73.910	73.314	81.956
263592.681	-86.129	-86.427	-90.599	-54.240	0.000	81.956	87.619	93.579
263592.689	-59.605	-54.538	-70.930	-31.292	28.610	114.739	128.448	129.640
263592.697	-128.150	-128.448	-154.376	-99.540	-59.307	47.982	56.624	51.856
263592.705	-43.213	-47.684	-62.883	-16.391	33.081	105.202	120.997	129.640
263592.726	-59.903	-59.009	-84.937	-31.292	11.325	101.030	104.904	134.706
263592.734	-79.572	-80.168	-103.414	-56.028	-2.980	106.096	139.475	119.209
263592.742	-33.081	-32.783	-51.558	-7.451	35.763	144.541	184.476	152.886
263592.750	-75.698	-75.400	-102.222	-52.452	-9.835	82.850	88.513	86.129
263592.758	-24.438	-25.332	-66.459	-11.921	33.379	140.965	177.324	157.356
263592.766	-7.749	-5.960	-59.009	4.470	24.140	166.595	199.974	189.245
263592.774	1.490	4.768	-43.213	9.835	37.551	131.726	121.593	149.012
263592.782	83.447	86.129	29.504	78.678	120.103	181.496	175.536	191.331
263592.790	53.346	55.730	-17.285	40.829	78.678	167.489	181.198	174.940
263592.798	106.096	107.288	30.398	96.560	129.044	198.483	204.146	233.948
263592.806	106.990	111.461	21.160	101.030	96.560	226.796	209.510	295.341
263592.814	102.818	112.653	23.842	97.752	99.242	169.873	169.277	188.053
263592.822	125.766	139.475	29.206	120.103	129.342	159.442	169.873	153.482
263592.830	119.209	132.322	17.285	100.732	105.500	158.846	150.800	178.516
263592.838	158.250	171.363	54.240	136.197	120.997	187.159	202.060	187.159
263592.846	143.647	158.548	27.418	122.190	109.375	172.853	180.900	170.767
263592.854	160.038	167.787	61.095	146.031	139.773	172.555	167.489	190.437
263592.862	210.106	217.855	120.997	199.974	182.092	205.934	223.219	212.789
263592.870	165.403	173.151	67.949	147.521	136.793	178.516	185.072	189.543
263592.878	185.072	193.119	82.254	170.767	153.482	189.543	206.828	200.570
263592.886	168.085	175.834	69.141	152.588	139.773	181.794	190.735	190.735
263592.894	171.363	175.238	76.890	152.290	144.541	169.873	177.622	176.728
263592.902	177.920	179.708	96.858	157.654	146.031	168.085	181.496	172.257
263592.910	117.719	112.653	47.386	96.858	96.560	141.859	150.204	148.416
263592.918	159.442	150.800	110.269	136.793	142.753	178.814	190.139	186.861
263592.926	134.110	126.958	88.215	113.547	123.978	161.827	168.979	165.999
263592.934	121.891	114.441	88.811	102.222	115.037	151.992	157.058	162.721
263592.942	119.805	115.335	88.811	103.712	110.865	154.376	174.344	162.125
263592.950	82.254	75.698	51.558	61.393	81.956	118.911	131.428	125.170
263592.958	128.150	116.825	110.269	111.759	129.342	152.290	172.257	168.979
263592.966	72.718	57.518	61.095	55.730	71.228	107.884	117.421	115.633
263592.974	62.287	44.107	57.817	42.915	65.863	90.897	96.262	92.685
263592.982	131.130	112.355	135.303	113.547	137.985	164.807	159.144	175.536
263592.990	62.883	46.790	67.055	47.982	71.526	117.123	55.432	127.852
263592.998	119.805	105.500	135.303	107.586	126.958	152.290	87.023	160.635
263593.006	115.633	101.328	134.408	104.904	121.295	141.561	81.062	141.859
263593.014	110.269	95.665	126.958	97.752	118.017	125.766	62.585	124.276
263593.022	143.349	129.342	166.893	131.130	150.502	151.992	100.732	157.654
263593.030	81.658	70.035	99.242	67.353	94.473	118.017	52.452	125.766
263593.038	130.534	117.719	158.846	122.488	124.872	143.945	81.658	148.118
263593.046	108.182	91.493	154.674	100.732	105.500	116.527	55.134	116.229
263593.054	114.739	95.963	161.231	104.010	123.382	117.421	59.903	114.143
263593.062	174.940	158.250	229.776	162.721	186.265	176.132	122.786	180.006
263593.070	73.016	61.095	120.997	64.075	78.678	95.367	26.226	90.301
263593.078	136.197	124.276	177.920	139.177	125.170	140.965	84.639	133.216
263593.086	179.112	163.913	236.630	175.238	173.748	167.191	108.778	166.893
263593.094	161.529	147.223	219.345	152.588	169.277	151.396	88.215	156.462
263593.102	201.762	182.390	265.837	179.112	203.252	176.728	123.680	171.363
263593.110	150.800	129.640	215.471	130.832	145.435	133.514	69.737	125.766
263593.118	208.020	184.774	281.334	182.092	216.067	177.026	119.209	170.767
263593.126	221.431	202.060	293.851	206.232	239.611	192.225	132.322	184.774
263593.134	214.279	195.205	295.341	205.934	232.458	181.198	115.931	173.151
263593.142	279.248	263.453	361.502	266.731	300.109	232.160	174.940	218.451
263593.150	304.878	286.698	378.191	286.400	315.905	239.909	173.748	229.776
263593.158	353.456	348.091	428.259	353.456	355.840	253.320	199.676	237.823
263593.166	371.039	365.973	431.240	363.290	354.946	232.756	172.257	216.961
263593.173	401.139	396.967	454.783	393.391	356.734	215.173	149.310	203.252
263593.181	483.990	489.652	530.779	486.672	423.789	246.465	187.755	233.352
263593.189	427.067	429.749	474.155	417.233	369.847	176.430	106.394	157.952
263593.197	439.286	440.180	491.440	423.491	371.337	170.171	101.626	148.714
263593.205	430.346	426.471	495.911	403.225	368.059	159.144	83.447	141.859
263593.213	414.550	410.080	485.182	397.563	355.542	141.859	63.777	124.574
263593.221	425.577	425.279	493.526	416.040	377.893	174.344	108.480	158.250
263593.229	326.931	322.163	381.768	315.309	292.957	115.037	45.002	92.089
263593.237	345.409	337.064	422.895	331.104	312.626	130.236	63.181	116.527
263593.245	325.739	314.713	412.464	297.725	316.799	139.773	62.883	127.852
263593.253	302.196	293.553	380.874	274.777	281.036	140.071	55.432	128.746
263593.261	287.890	281.334	377.297	272.095	268.221	146.031	74.506	124.276
263593.269	238.419	225.604	344.515	221.133	251.532	115.931	38.743	95.367
263593.277	225.604	212.491	317.693	205.040	231.564	106.692	28.908	93.877
263593.285	199.080	180.602	292.659	162.721	209.510	94.473	11.921	81.658
263593.293	160.635	141.561	255.704	121.891	165.701	75.102	-6.258	54.240
263593.301	198.185	181.198	288.486	168.085	194.907	111.461	29.206	95.069
263593.309	144.243	127.554	241.101	122.786	151.396	70.035	-22.948	49.174
263593.317	169.277	147.521	269.413	134.408	187.159	97.454	19.073	81.360
263593.325	128.746	108.480	212.193	91.195	121.295	81.360	-3.874	66.161
263593.333	132.620	112.355	228.584	94.771	137.091	59.903	-19.670	25.928
263593.341	129.044	107.288	221.431	94.771	140.071	65.863	-14.305	38.147
263593.349	86.725	64.075	178.516	48.876	97.156	46.492	-53.346	33.677
263593.357	132.024	114.441	223.219	103.414	138.581	72.718	-8.941	53.048
263593.365	102.222	82.850	185.966	68.545	99.540	54.538	-23.246	22.650
263593.373	59.307	38.743	146.031	30.398	55.134	14.901	-71.228	-9.835
263593.381	125.468	109.076	218.153	100.732	127.554	63.181	-7.749	40.531
263593.389	120.699	98.348	209.212	86.129	121.891	56.624	-11.921	29.504
263593.394	177.622	155.866	263.751	143.051	177.920	111.759	41.425	96.560
263593.402	135.899	118.017	214.279	104.606	140.071	93.281	8.941	72.718
263593.410	84.937	67.949	163.019	50.664	78.082	51.856	-30.696	14.901
263593.418	127.256	109.076	205.040	92.983	124.872	76.294	5.960	41.127
263593.426	75.698	56.028	167.787	48.280	69.141	26.822	-54.836	-15.497
263593.434	131.726	112.057	228.882	95.367	135.005	79.572	6.557	44.703
263593.442	116.229	96.262	191.629	74.804	102.520	77.784	-4.172	45.598
263593.450	127.852	107.586	209.510	101.626	122.488	77.188	-5.662	46.194
263593.458	121.593	103.116	206.232	90.003	106.394	78.678	8.345	45.896
263593.466	79.572	64.969	170.469	46.790	76.592	47.386	-37.551	17.285
263593.474	114.739	106.990	201.762	110.567	109.673	74.208	10.133	39.339
263593.482	91.195	76.294	174.344	65.565	88.811	43.511	-44.107	8.941
263593.490	108.480	92.983	190.139	79.572	101.328	66.757	-15.497	37.253
263593.498	129.640	112.057	203.848	97.454	114.441	89.109	14.007	63.181
263593.506	84.937	68.843	167.489	52.154	64.373	47.684	-27.120	12.815
263593.514	96.858	83.745	183.284	72.718	75.102	39.935	-26.226	6.557
263593.522	68.843	56.326	135.601	50.664	44.405	23.842	-47.982	-14.603
263593.530	50.962	36.061	112.951	23.544	22.054	13.113	-66.161	-20.564
263593.538	108.182	91.791	173.151	73.910	85.235	68.545	-11.027	39.339
263593.546	68.247	50.664	145.137	37.253	50.068	26.226	-63.479	-10.729
263593.554	67.949	50.962	146.031	37.253	45.598	16.391	-57.220	-22.948
263593.562	20.862	5.066	90.897	-5.960	-14.603	-18.775	-96.560	-70.035
263593.570	34.869	18.179	107.884	-0.596	16.093	-17.583	-97.752	-67.949
263593.578	47.982	33.975	109.375	9.537	18.775	14.901	-62.883	-25.630
263593.586	2.384	-8.941	65.267	-27.418	-36.061	-16.987	-105.500	-65.863
263593.594	21.756	9.239	89.705	-6.258	-16.093	-8.345	-86.129	-56.922
263593.602	-17.583	-31.590	45.002	-44.405	-56.028	-34.273	-115.633	-84.341
263593.610	-8.345	-25.630	54.836	-40.829	-40.829	-23.246	-107.288	-60.499
263593.614	19.968	4.768	81.658	-13.411	-18.179	8.345	-62.287	-29.504
263593.622	-71.228	-90.003	-7.749	-109.076	-105.798	-89.407	-176.430	-134.706
263593.630	-47.982	-66.161	25.928	-68.247	-85.831	-88.215	-166.893	-133.514
263593.638	-90.003	-107.884	-25.034	-118.017	-129.342	-112.355	-196.397	-157.058
263593.646	-131.130	-146.031	-70.333	-158.250	-167.489	-151.992	-242.293	-189.543
263593.654	-121.295	-135.303	-58.711	-139.177	-155.866	-146.925	-227.094	-177.920
263593.662	-158.548	-176.132	-82.254	-177.324	-193.715	-188.351	-276.566	-226.498
263593.670	-72.718	-92.387	5.364	-96.262	-102.222	-118.613	-189.841	-152.886
263593.678	-159.740	-174.046	-80.168	-181.794	-193.119	-178.814	-254.810	-219.047
263593.686	-196.993	-213.683	-101.030	-223.219	-231.266	-216.663	-303.686	-251.830
263593.694	-178.516	-196.695	-81.360	-199.676	-211.895	-210.404	-291.467	-248.849
263593.702	-248.849	-264.347	-156.760	-260.770	-275.373	-268.221	-370.145	-309.646
263593.710	-195.801	-208.616	-88.513	-204.146	-221.133	-235.736	-340.343	-272.095
263593.718	-208.914	-221.431	-104.606	-218.749	-240.505	-233.948	-341.237	-272.691
263593.726	-200.570	-217.855	-83.745	-217.855	-227.988	-227.690	-332.594	-264.049
263593.734	-196.993	-215.471	-76.592	-217.855	-215.471	-227.988	-321.865	-269.711
263593.742	-223.517	-237.823	-106.096	-236.332	-232.756	-248.253	-363.588	-291.467
263593.750	-191.927	-204.444	-72.420	-200.868	-210.702	-216.961	-345.111	-269.413
263593.758	-220.537	-240.505	-86.725	-244.975	-245.869	-234.842	-384.450	-303.984
263593.766	-219.345	-234.544	-81.062	-238.121	-235.140	-233.650	-384.450	-301.599
263593.774	-172.555	-182.092	-38.743	-190.139	-187.755	-188.053	-335.872	-258.684
263593.782	-205.636	-220.835	-72.420	-231.862	-224.113	-209.808	-360.310	-280.142
263593.790	-192.821	-206.828	-55.134	-214.875	-208.914	-206.232	-339.150	-281.334
263593.798	-212.491	-225.008	-74.208	-233.948	-230.968	-223.219	-372.827	-304.878
263593.806	-190.735	-208.318	-42.915	-217.259	-201.762	-207.126	-363.588	-275.075
263593.814	-148.118	-162.721	-2.086	-165.999	-163.615	-174.940	-320.077	-244.379
263593.822	-214.577	-227.094	-69.141	-230.372	-232.160	-228.286	-375.211	-306.070
263593.830	-169.277	-182.986	-30.696	-193.417	-182.092	-190.437	-329.316	-265.837
263593.836	-210.106	-223.517	-74.208	-233.948	-240.505	-238.717	-379.682	-323.653
263593.844	-194.311	-208.616	-45.002	-222.623	-205.934	-232.756	-370.145	-310.838
263593.852	-137.687	-152.886	19.073	-155.866	-143.051	-180.006	-300.705	-248.849
263593.860	-192.821	-207.126	-34.273	-205.040	-204.444	-219.941	-345.707	-287.890
263593.868	-162.721	-177.920	-6.855	-187.755	-169.873	-196.099	-314.414	-257.492
263593.876	-211.298	-225.604	-67.055	-244.975	-228.286	-248.849	-374.913	-325.441
263593.884	-221.431	-233.650	-69.439	-255.704	-233.948	-249.147	-381.768	-317.395
263593.892	-200.272	-207.126	-54.240	-206.828	-232.458	-227.094	-351.071	-298.321
263593.900	-242.591	-254.512	-94.771	-261.366	-256.598	-264.347	-391.305	-330.210
263593.908	-181.496	-199.676	-25.332	-211.298	-195.205	-226.796	-351.369	-285.804
263593.916	-216.365	-230.074	-49.472	-238.121	-235.438	-264.645	-387.430	-334.084
263593.924	-176.430	-188.649	-18.775	-206.232	-186.861	-233.650	-355.542	-290.573
263593.932	-177.622	-184.774	-22.650	-204.742	-193.417	-239.313	-348.687	-303.686
263593.940	-237.823	-247.359	-79.274	-277.460	-250.638	-282.228	-404.716	-346.601
263593.948	-180.304	-194.609	-21.458	-216.663	-187.755	-245.273	-357.032	-305.474
263593.956	-193.715	-203.550	-50.962	-214.279	-228.882	-238.121	-347.197	-295.937
263593.964	-202.656	-210.106	-54.836	-221.729	-253.618	-252.724	-361.502	-314.116
263593.972	-183.284	-194.609	-41.425	-209.808	-223.517	-241.995	-355.542	-308.752
263593.980	-238.717	-248.849	-89.705	-272.691	-260.472	-285.506	-410.378	-351.071
263593.988	-165.403	-174.344	-8.047	-204.742	-199.080	-226.498	-338.554	-293.851
263593.996	-196.993	-206.828	-48.876	-236.034	-232.756	-255.406	-362.098	-340.044
263594.004	-193.417	-204.742	-53.644	-230.372	-233.352	-249.445	-357.926	-316.799
263594.012	-164.807	-167.191	-44.703	-185.668	-226.200	-206.530	-309.050	-277.758
263594.020	-154.376	-159.442	-33.379	-184.774	-195.503	-206.828	-321.269	-280.440
263594.028	-82.552	-85.235	31.292	-121.593	-133.514	-148.118	-248.849	-214.279
263594.036	-152.290	-151.396	-50.068	-196.695	-225.306	-199.676	-321.567	-284.910
263594.044	-139.475	-138.581	-37.849	-177.920	-203.252	-179.708	-300.407	-258.386
263594.052	-126.660	-122.786	-22.054	-164.807	-196.695	-160.038	-266.433	-236.630
263594.059	-167.787	-170.469	-78.380	-216.961	-246.763	-211.000	-327.229	-288.785
263594.067	-98.348	-94.175	-18.477	-143.945	-177.920	-181.198	-280.738	-260.770
263594.075	-115.037	-109.673	-35.167	-163.019	-199.080	-192.821	-296.533	-287.592
263594.083	-116.825	-104.606	-41.425	-154.972	-198.185	-171.363	-284.612	-259.876
263594.091	-73.016	-57.220	-21.458	-107.586	-171.661	-116.527	-225.604	-185.966
263594.099	-126.064	-114.441	-74.506	-173.450	-216.961	-189.543	-306.964	-279.546
263594.107	-39.041	-28.908	31.292	-90.599	-116.229	-118.315	-202.656	-197.887
263594.115	-92.685	-73.612	-54.538	-133.812	-216.365	-136.495	-228.584	-212.491
263594.123	-65.267	-44.703	-24.438	-102.818	-177.622	-103.116	-233.948	-107.288
263594.131	-2.980	17.881	25.928	-51.558	-123.382	-5.662	-57.220	-39.339
263594.139	-127.256	-97.454	-113.547	-181.198	-264.645	-180.900	-246.763	-307.262
263594.147	-66.459	-32.783	-57.220	-93.877	-207.722	-188.053	-319.183	-292.957
263594.155	-81.062	-52.452	-70.632	-109.673	-217.557	-179.112	-289.083	-265.837
263594.163	-84.043	-56.624	-71.824	-123.680	-221.133	-164.807	-254.810	-254.810
263594.171	-91.791	-63.181	-85.235	-140.667	-233.352	-205.636	-315.607	-324.547
263594.179	-163.019	-137.985	-165.403	-202.954	-307.858	-261.366	-388.026	-369.847
263594.187	-93.579	-64.373	-92.387	-122.190	-229.478	-190.735	-298.321	-287.890
263594.195	-113.249	-85.235	-117.719	-149.012	-243.783	-185.072	-295.043	-276.268
263594.203	-122.488	-101.328	-115.335	-162.125	-255.704	-195.801	-300.109	-286.102
263594.211	-108.480	-89.407	-105.202	-144.541	-246.167	-195.205	-283.420	-297.725
263594.219	-166.595	-144.541	-171.065	-199.676	-307.262	-235.438	-334.382	-339.448
263594.227	-105.202	-78.976	-105.500	-137.687	-241.697	-179.112	-273.585	-275.671
263594.235	-143.349	-118.911	-133.812	-174.344	-266.731	-200.570	-306.964	-301.599
263594.243	-149.310	-127.554	-123.978	-173.151	-267.327	-205.040	-317.395	-301.599
263594.251	-136.793	-120.103	-95.665	-163.615	-240.505	-177.622	-291.467	-277.758
263594.259	-212.491	-200.272	-160.336	-245.869	-305.772	-231.862	-349.581	-338.256
263594.267	-172.853	-160.038	-103.414	-204.444	-255.108	-183.284	-286.996	-286.698
263594.275	-217.855	-208.318	-129.938	-237.525	-298.917	-210.106	-327.528	-316.799
263594.282	-242.293	-229.478	-142.753	-244.081	-308.454	-236.630	-360.012	-346.005
263594.290	-206.232	-199.974	-106.692	-218.749	-257.790	-202.060	-308.454	-310.540
263594.298	-243.485	-237.823	-137.091	-255.108	-287.294	-240.207	-361.502	-339.448
263594.306	-194.609	-182.986	-93.281	-194.907	-242.293	-197.589	-303.984	-296.235
263594.314	-244.975	-235.438	-134.110	-255.108	-297.129	-215.769	-332.892	-313.222
263594.322	-234.842	-227.988	-103.712	-235.140	-273.287	-225.306	-340.939	-323.653
263594.330	-166.893	-157.654	-46.790	-166.595	-206.232	-179.410	-283.122	-282.228
263594.338	-257.492	-249.743	-138.581	-258.982	-290.275	-259.876	-382.364	-366.569
263594.346	-217.557	-211.596	-89.407	-223.815	-250.936	-221.133	-327.528	-320.375
263594.354	-231.564	-225.008	-99.838	-237.226	-269.115	-233.352	-338.852	-337.958
263594.362	-234.842	-225.902	-102.520	-240.207	-263.453	-243.485	-362.396	-342.727
263594.370	-192.523	-183.582	-62.585	-197.887	-224.411	-194.609	-304.282	-290.573
263594.378	-220.537	-210.702	-92.387	-226.498	-248.253	-211.596	-324.249	-310.838
263594.386	-143.647	-133.812	-8.345	-153.184	-162.125	-163.019	-265.837	-259.280
263594.394	-183.880	-174.046	-52.452	-185.072	-220.835	-194.907	-308.156	-291.765
263594.402	-181.794	-174.046	-50.068	-185.072	-213.385	-195.205	-299.215	-286.996
263594.410	-122.488	-115.037	17.583	-124.872	-137.985	-142.455	-237.226	-228.286
263594.418	-182.986	-171.363	-49.174	-182.688	-215.173	-193.417	-303.984	-285.506
263594.426	-137.389	-127.554	1.192	-136.197	-171.661	-164.211	-255.406	-253.618
263594.434	-171.661	-163.913	-41.723	-176.132	-200.272	-194.907	-292.659	-291.765
263594.442	-157.356	-147.223	-26.524	-162.125	-184.476	-193.417	-295.639	-287.592
263594.450	-142.455	-131.130	-12.517	-146.031	-177.324	-164.211	-250.340	-263.751
263594.458	-179.708	-174.642	-36.061	-190.139	-204.742	-211.895	-324.547	-303.388
263594.466	-115.931	-106.692	24.140	-128.448	-152.886	-157.654	-254.214	-250.638
263594.474	-177.324	-166.595	-55.432	-176.728	-218.749	-211.000	-307.560	-308.156
263594.482	-183.880	-174.642	-61.989	-185.966	-209.808	-232.756	-325.143	-313.520
263594.490	-145.137	-134.110	-21.458	-145.137	-183.284	-181.496	-268.817	-251.532
263594.498	-174.940	-165.999	-44.107	-174.046	-210.702	-232.160	-324.845	-303.686
263594.520	-138.581	-125.468	-6.258	-135.005	-175.238	-210.702	-285.804	-287.294
263594.528	-182.390	-165.105	-62.287	-185.370	-220.537	-250.041	-330.210	-329.316
263594.536	-141.263	-131.726	-10.133	-166.893	-159.144	-218.749	-303.388	-290.871
263594.544	-104.010	-95.367	12.219	-120.997	-139.177	-188.947	-272.393	-254.810
263594.552	-148.118	-134.110	-48.876	-149.012	-208.914	-205.636	-293.553	-284.016
263594.560	-101.626	-85.831	4.470	-101.328	-146.627	-158.548	-240.505	-230.372
263594.568	-164.211	-150.204	-73.612	-170.767	-229.478	-224.113	-306.666	-309.050
263594.576	-148.714	-140.667	-55.730	-171.363	-211.596	-197.887	-268.221	-274.777
263594.584	-111.461	-99.242	-33.379	-132.024	-189.245	-135.899	-202.954	-196.695
263594.592	-194.907	-177.026	-127.554	-211.596	-287.890	-223.517	-317.693	-290.573
263594.600	-96.858	-78.678	-37.551	-119.507	-182.390	-168.979	-254.214	-242.591
263594.608	-109.971	-84.937	-62.585	-133.812	-198.483	-178.814	-291.467	-233.352
263594.616	-116.527	-90.599	-78.678	-140.667	-219.345	-225.008	-336.170	-320.673
263594.624	-66.757	-37.551	-42.021	-91.791	-177.026	-178.218	-279.248	-301.301
263594.632	-111.163	-81.062	-95.367	-141.263	-222.325	-189.245	-302.196	-290.871
263594.640	-85.533	-54.538	-71.228	-114.441	-206.232	-187.457	-288.188	-293.255
263594.648	-80.168	-48.876	-70.035	-109.971	-197.589	-185.668	-299.215	-298.619
263594.656	-68.545	-39.339	-47.684	-101.924	-177.622	-173.748	-286.698	-275.671
263594.664	-39.041	-12.815	-6.855	-72.718	-146.627	-143.647	-241.995	-245.273
263594.672	-81.658	-54.240	-60.201	-109.076	-187.457	-183.880	-290.871	-277.162
263594.680	-52.154	-28.610	-28.014	-77.486	-162.721	-169.277	-261.068	-260.174
263594.688	-76.890	-54.538	-48.280	-108.480	-187.159	-187.755	-282.228	-280.738
263594.696	-71.228	-49.770	-40.829	-101.626	-175.536	-181.794	-275.671	-269.711
263594.704	-51.558	-33.081	-12.815	-82.552	-147.820	-156.760	-244.677	-245.571
263594.712	-100.136	-84.341	-42.319	-125.170	-181.198	-173.151	-268.221	-255.108
263594.720	-94.473	-81.956	-23.842	-110.865	-166.893	-146.925	-225.306	-229.180
263594.728	-120.401	-109.673	-29.206	-133.514	-179.708	-151.694	-237.226	-232.160
263594.736	-182.688	-173.151	-74.506	-195.503	-226.796	-196.695	-286.996	-279.248
263594.744	-137.389	-129.938	-23.842	-149.012	-175.536	-174.046	-252.426	-253.916
263594.752	-181.198	-176.132	-64.373	-200.570	-212.491	-199.676	-285.804	-267.327
263594.760	-157.654	-157.058	-30.398	-183.582	-177.920	-184.476	-264.347	-250.340
263594.768	-194.907	-193.417	-58.115	-231.862	-207.424	-217.557	-297.427	-290.871
263594.776	-209.510	-210.702	-59.605	-262.260	-208.616	-218.451	-300.407	-281.632
263594.784	-200.570	-207.126	-47.386	-247.359	-181.794	-203.550	-284.314	-261.962
263594.792	-247.061	-258.386	-84.639	-304.878	-227.392	-244.081	-330.508	-302.494
263594.800	-186.265	-196.099	-11.623	-248.253	-146.329	-185.966	-260.472	-231.862
263594.808	-222.921	-237.226	-42.021	-286.698	-182.986	-217.259	-293.851	-257.492
263594.816	-235.438	-247.061	-55.134	-295.341	-197.887	-218.749	-295.639	-250.340
263594.824	-209.510	-223.219	-16.093	-281.930	-146.925	-215.173	-288.188	-260.770
263594.832	-248.253	-261.366	-58.413	-325.739	-174.940	-228.584	-300.705	-257.194
263594.840	-227.988	-232.458	-55.730	-295.341	-183.582	-199.080	-255.108	-220.835
263594.848	-238.419	-246.167	-58.711	-304.282	-178.218	-216.961	-280.440	-255.108
263594.856	-238.121	-245.571	-47.684	-297.725	-185.668	-221.133	-288.486	-256.896
263594.864	-211.298	-222.027	-17.881	-272.393	-148.416	-192.225	-249.445	-225.902
263594.872	-265.539	-271.797	-90.003	-321.567	-209.808	-227.392	-297.129	-252.426
263594.880	-220.239	-226.498	-41.723	-274.181	-154.674	-197.291	-249.147	-227.988
263594.888	-250.638	-259.280	-64.671	-298.321	-184.774	-219.047	-280.142	-240.505
263594.896	-232.458	-242.889	-45.598	-281.036	-159.442	-212.491	-270.903	-224.411
263594.904	-185.668	-191.927	2.682	-239.015	-100.732	-163.317	-210.106	-174.940
263594.912	-305.772	-303.686	-135.005	-345.707	-253.916	-243.187	-297.129	-260.770
263594.920	-231.266	-234.842	-47.088	-278.354	-169.277	-213.981	-259.876	-225.008
263594.928	-221.431	-229.180	-42.617	-279.546	-156.164	-207.126	-251.234	-213.087
263594.936	-243.783	-251.234	-62.585	-296.533	-165.701	-233.948	-276.268	-235.736
263594.944	-228.286	-230.372	-53.048	-270.307	-163.317	-217.855	-256.002	-223.517
263594.952	-250.041	-254.214	-78.678	-299.215	-189.841	-219.643	-256.598	-224.411
263594.960	-203.252	-203.550	-33.379	-250.638	-145.733	-179.708	-219.047	-173.748
263594.965	-263.155	-267.923	-95.069	-323.355	-201.464	-230.670	-278.652	-228.882
263594.973	-281.334	-286.102	-113.249	-336.170	-220.239	-249.147	-295.341	-261.366
263594.981	-199.080	-203.550	-31.590	-241.995	-143.945	-182.390	-211.298	-188.351
263594.989	-233.650	-236.034	-72.122	-276.864	-182.986	-207.722	-244.081	-211.298
263594.997	-184.774	-184.476	-25.928	-227.094	-124.276	-169.575	-208.616	-163.913
263595.005	-220.835	-225.306	-65.565	-281.334	-154.972	-188.053	-233.352	-181.198
263595.013	-216.663	-219.941	-70.632	-277.162	-161.529	-188.649	-225.306	-178.516
263595.021	-216.961	-214.875	-84.639	-277.460	-184.178	-193.417	-210.106	-191.033
263595.029	-247.061	-245.273	-121.295	-313.222	-204.742	-221.431	-250.936	-214.875
263595.037	-167.489	-164.807	-32.783	-222.027	-115.633	-167.489	-190.139	-147.820
263595.045	-204.146	-204.742	-73.612	-257.790	-155.866	-192.225	-219.047	-172.257
263595.053	-194.013	-194.013	-68.545	-247.955	-169.277	-160.635	-180.006	-139.177
263595.061	-184.476	-182.092	-67.651	-241.995	-165.701	-149.608	-169.575	-120.997
263595.069	-229.776	-226.498	-115.037	-292.063	-211.895	-225.008	-246.167	-219.941
263595.077	-172.257	-165.403	-76.890	-221.431	-168.085	-168.979	-186.265	-152.290
263595.085	-176.728	-171.661	-92.685	-230.372	-169.277	-154.376	-179.112	-117.123
263595.093	-172.257	-168.979	-84.341	-228.584	-163.317	-178.218	-183.582	-163.019
263595.101	-138.879	-133.514	-48.578	-195.205	-139.773	-165.105	-161.231	-154.376
263595.109	-192.225	-187.457	-99.838	-254.214	-183.880	-202.656	-206.232	-182.986
263595.117	-136.197	-126.958	-59.009	-189.841	-131.130	-146.031	-135.601	-117.421
263595.125	-167.191	-160.635	-80.466	-217.259	-163.317	-185.966	-171.661	-161.231
263595.133	-157.058	-146.627	-66.459	-208.914	-146.329	-182.390	-171.959	-153.184
263595.141	-129.938	-116.825	-50.962	-171.661	-129.044	-160.635	-146.031	-135.899
263595.149	-167.489	-157.058	-90.003	-205.636	-164.807	-192.523	-182.986	-171.959
263595.157	-100.732	-92.387	-13.411	-148.416	-88.811	-140.369	-126.958	-107.288
263595.165	-141.263	-134.706	-46.790	-191.629	-118.911	-164.509	-150.502	-130.534
263595.173	-145.435	-140.965	-40.531	-185.966	-124.276	-175.834	-160.038	-142.455
263595.181	-127.554	-126.660	-20.862	-166.893	-105.798	-149.012	-126.362	-118.315
263595.188	-164.211	-158.250	-61.095	-188.947	-144.243	-179.708	-161.827	-151.396
263595.196	-82.552	-74.506	22.054	-101.328	-63.181	-132.024	-104.904	-97.454
263595.204	-151.992	-141.859	-52.154	-168.681	-125.468	-176.132	-158.846	-137.687
263595.212	-161.529	-149.310	-60.499	-173.748	-140.667	-188.649	-170.767	-153.780
263595.220	-116.527	-107.288	-22.054	-117.719	-97.156	-163.615	-133.216	-134.110
263595.228	-171.363	-166.297	-77.784	-167.489	-154.376	-206.530	-178.218	-177.324
263595.236	-113.845	-105.798	-20.266	-111.461	-96.262	-147.521	-109.076	-114.143
263595.244	-121.593	-112.951	-19.372	-119.209	-103.414	-150.502	-122.786	-118.613
263595.252	-139.177	-127.852	-37.849	-134.110	-117.719	-165.403	-141.561	-131.130
263595.260	-105.202	-100.136	1.490	-103.712	-84.639	-149.310	-110.865	-119.209
263595.268	-133.216	-133.216	-21.160	-132.024	-114.143	-182.986	-148.118	-146.329
263595.276	-74.208	-68.247	38.147	-70.333	-60.797	-124.574	-80.168	-83.148
263595.284	-104.606	-98.348	10.133	-101.626	-87.023	-145.733	-110.865	-103.712
263595.292	-119.507	-110.865	-10.133	-108.182	-98.646	-161.529	-122.786	-117.719
263595.300	-92.387	-90.301	15.497	-99.242	-73.612	-145.137	-92.983	-102.222
263595.308	-137.091	-135.601	-17.285	-142.455	-113.249	-192.225	-154.674	-143.647
263595.316	-84.639	-77.188	33.677	-74.804	-56.028	-146.627	-105.202	-90.003
263595.324	-126.064	-117.719	-19.670	-114.143	-111.163	-183.582	-138.581	-131.726
263595.332	-140.965	-132.322	-36.061	-137.687	-120.997	-204.742	-157.952	-155.568
263595.340	-93.281	-86.725	14.901	-95.367	-69.439	-163.615	-113.845	-110.269
263595.348	-99.540	-96.858	17.583	-97.156	-75.102	-171.661	-131.726	-114.441
263595.356	-30.100	-33.081	90.301	-30.696	-11.027	-115.335	-61.095	-59.605
263595.364	-106.990	-103.116	6.557	-103.116	-98.348	-180.304	-135.601	-132.322
263595.372	-98.050	-95.963	14.901	-96.262	-85.533	-180.304	-137.091	-125.170
263595.380	-30.696	-33.677	79.870	-37.253	-14.305	-115.037	-62.883	-51.856
263595.388	-74.208	-76.890	25.630	-75.102	-53.346	-158.250	-116.527	-96.560
263595.396	-42.021	-42.915	55.134	-39.339	-16.689	-129.938	-79.572	-73.612
263595.404	-87.917	-88.513	18.179	-90.599	-67.055	-131.130	-85.235	-78.976
263595.409	-61.393	-59.605	45.896	-52.154	-48.876	-150.800	-110.269	-95.069
263595.417	11.325	17.583	102.818	28.610	5.364	-109.673	-60.797	-54.538
263595.425	-16.987	-1.788	60.499	2.682	-40.531	-151.098	-105.500	-93.579
263595.433	21.756	31.888	101.924	44.405	-11.027	-188.649	-97.752	-98.050
263595.441	32.783	43.213	106.692	59.605	-4.768	-223.219	-98.944	-96.858
263595.449	50.962	64.969	119.209	93.579	-6.258	-218.153	-90.003	-82.552
263595.457	95.963	110.269	159.740	139.773	34.273	-192.523	-52.452	-61.095
263595.465	56.326	72.420	115.931	95.367	9.835	-230.372	-96.262	-100.732
263595.473	110.567	133.514	154.376	154.376	47.386	-171.661	-26.226	-38.743
263595.481	84.043	106.692	118.613	142.157	10.431	-193.715	-55.432	-58.115
263595.489	56.028	72.122	110.567	101.328	-6.258	-226.498	-87.619	-84.341
263595.497	66.459	85.235	120.699	112.355	8.047	-206.530	-61.095	-66.757
263595.505	20.266	39.041	66.459	69.737	-32.783	-234.246	-89.705	-100.136
263595.513	77.486	91.195	136.495	120.103	28.014	-183.582	-26.226	-42.915
263595.521	43.809	62.287	95.069	87.917	-11.623	-201.166	-58.413	-61.393
263595.529	48.578	65.863	100.136	86.725	-0.596	-188.649	-45.300	-44.703
263595.537	56.028	79.572	107.586	115.037	10.431	-177.026	-29.206	-36.955
263595.545	12.815	35.167	69.439	74.804	-30.398	-214.577	-70.930	-77.188
263595.553	72.122	91.493	126.958	126.958	24.140	-157.952	-11.921	-8.047
263595.561	-0.894	19.372	47.684	50.962	-48.876	-217.557	-73.016	-75.400
263595.569	-23.246	-3.874	21.756	19.670	-64.671	-245.571	-95.665	-96.858
263595.577	-5.364	11.027	40.531	33.379	-51.856	-220.537	-66.757	-65.267
263595.585	-90.599	-71.526	-33.379	-36.657	-136.793	-286.698	-137.389	-135.005
263595.593	-51.260	-26.822	0.000	8.643	-106.096	-276.566	-122.786	-128.150
263595.601	-63.777	-39.041	-19.670	-3.576	-117.421	-267.029	-121.593	-119.805
263595.609	-7.749	15.199	33.677	50.366	-59.307	-222.623	-75.400	-68.247
263595.617	1.490	22.650	43.213	40.233	-36.657	-216.961	-63.181	-66.757
263595.625	-79.572	-53.048	-53.942	-24.736	-143.647	-275.671	-127.554	-134.706
263595.631	9.835	35.167	53.644	67.353	-47.982	-199.676	-48.578	-51.558
263595.639	-17.583	9.239	25.928	36.657	-76.890	-210.702	-66.161	-62.883
263595.647	-24.736	0.298	15.795	31.590	-73.016	-230.670	-80.168	-89.109
263595.655	-11.027	18.477	15.795	42.617	-61.691	-208.318	-53.346	-72.420
263595.663	-48.876	-22.054	-17.583	-8.941	-94.473	-242.591	-104.010	-107.884
263595.671	0.000	27.120	30.696	50.664	-62.287	-198.483	-52.154	-59.009
263595.679	-33.975	-8.941	-1.192	21.458	-92.387	-230.670	-97.454	-93.579
263595.687	-44.107	-17.285	-27.418	11.921	-106.096	-236.928	-96.560	-97.752
263595.695	5.960	33.677	19.073	59.903	-59.307	-195.205	-48.578	-61.691
263595.703	-36.359	-10.729	-16.093	13.411	-99.540	-228.584	-98.050	-95.963
263595.711	-19.073	9.835	-0.596	30.696	-77.188	-220.239	-80.764	-95.367
263595.719	-22.650	3.576	1.490	23.246	-65.267	-219.643	-84.341	-86.427
263595.727	-18.179	9.239	-2.682	32.783	-97.156	-211.895	-83.148	-70.632
263595.735	70.035	96.858	78.380	125.766	-14.007	-120.103	28.014	22.948
263595.743	38.147	64.671	40.531	90.003	-45.002	-138.879	0.298	18.477
263595.751	36.955	70.333	38.445	87.917	-44.107	-199.378	-62.585	-85.235
263595.759	-14.603	14.901	-5.662	28.610	-87.321	-252.724	-118.315	-146.925
263595.767	-2.384	31.292	-10.729	46.790	-92.685	-213.981	-85.533	-72.122
263595.775	40.829	78.082	15.199	83.745	-70.930	-165.403	-34.869	-25.332
263595.783	34.273	64.969	20.564	66.161	-47.982	-212.193	-78.380	-109.673
263595.791	96.858	128.448	69.737	131.726	-7.749	-136.197	-5.960	-4.470
263595.799	37.253	70.930	-4.470	77.784	-74.208	-170.469	-32.783	-47.088
263595.807	15.795	41.723	-31.292	48.280	-91.493	-218.749	-91.493	-100.434
263595.815	70.333	96.262	31.292	105.798	-46.790	-198.781	-66.459	-91.195
263595.823	1.192	30.696	-40.233	37.253	-110.865	-247.955	-130.832	-140.071
263595.831	27.120	58.115	-14.305	75.400	-86.129	-226.796	-95.665	-119.805
263595.839	2.980	31.590	-36.061	48.280	-117.719	-235.140	-113.547	-124.872
263595.847	11.921	37.849	-21.160	44.405	-99.838	-221.729	-96.262	-106.990
263595.854	39.935	63.777	-9.239	63.479	-72.420	-188.649	-53.942	-79.870
263595.862	13.709	39.637	-43.213	59.307	-106.096	-230.968	-113.547	-114.143
263595.870	106.990	132.024	71.526	157.654	-6.557	-152.290	-25.332	-37.551
263595.878	115.037	139.475	74.804	154.972	10.133	-130.236	-5.960	-17.881
263595.886	114.441	137.389	72.718	149.608	10.133	-132.322	-10.729	-23.544
263595.894	129.044	151.694	95.069	168.979	16.987	-117.123	13.411	-21.756
263595.902	100.434	115.037	78.082	140.667	-1.788	-140.965	-19.670	-40.829
263595.910	146.031	157.356	130.534	181.496	56.028	-98.944	30.696	6.557
263595.918	123.978	136.197	112.057	161.529	41.723	-100.136	13.411	1.490
263595.926	75.698	81.956	82.850	120.699	4.172	-132.322	-19.073	-33.081
263595.934	91.791	94.175	100.732	143.945	21.160	-114.143	7.153	-18.477
263595.942	70.035	70.333	87.023	114.441	5.066	-133.216	-21.160	-36.657
263595.950	124.276	120.401	160.635	171.959	59.903	-89.705	32.783	11.027
263595.958	78.380	72.122	119.507	128.150	25.630	-128.150	-12.517	-38.743
263595.966	89.109	85.235	136.495	140.965	45.300	-111.461	6.258	-13.113
263595.974	100.732	100.434	145.733	159.740	59.307	-76.294	49.472	18.775
263595.982	54.538	55.134	95.665	114.143	11.027	-124.276	-12.517	-29.802
263595.990	100.434	97.454	147.521	157.356	67.055	-81.062	32.485	17.583
263595.998	46.492	40.531	95.367	100.434	15.497	-100.732	8.941	-7.749
263596.006	49.472	45.002	101.924	108.778	24.438	-95.367	15.497	-5.066
263596.014	58.413	55.134	111.461	115.335	34.273	-72.122	48.280	12.219
263596.022	2.682	-2.384	59.605	58.413	-15.199	-109.971	-2.682	-22.948
263596.030	39.637	32.783	99.540	95.367	26.822	-76.592	39.339	13.113
263596.038	0.298	-3.278	50.068	52.154	-5.960	-96.262	12.815	-8.643
263596.046	-9.835	-14.305	41.425	33.379	-10.431	-111.461	-6.855	-18.775
263596.054	20.564	19.670	78.082	69.737	12.517	-77.784	29.802	17.881
263596.062	-20.266	-19.670	45.002	42.915	-27.418	-108.480	-8.643	-12.219
263596.070	22.650	26.226	80.466	89.705	16.391	-81.956	28.610	5.364
263596.075	-21.160	-15.497	23.246	42.617	-19.670	-106.692	-3.874	-25.034
263596.083	-19.372	-21.160	38.743	36.657	-14.305	-110.865	-12.815	-28.610
263596.091	30.994	29.802	98.348	81.658	36.359	-57.518	55.134	26.226
263596.099	-33.379	-31.590	19.968	14.901	-24.736	-105.798	-7.451	-19.073
263596.107	-16.987	-16.391	44.405	41.127	-13.113	-101.030	6.855	-21.756
263596.115	-23.842	-23.246	45.002	35.763	-10.431	-97.156	-1.192	-14.603
263596.123	-14.305	-13.709	50.366	42.021	0.894	-88.811	10.133	-1.192
263596.131	-13.113	-11.325	45.598	42.319	-3.278	-84.639	18.775	-2.682
263596.139	-60.499	-60.201	-2.384	-3.576	-40.531	-125.468	-29.504	-44.107
263596.147	19.073	20.862	85.235	77.188	41.425	-66.757	30.696	19.372
263596.155	-29.802	-28.610	33.975	28.014	-15.795	-110.865	-21.160	-37.253
263596.163	-8.047	-8.941	55.134	46.790	10.133	-93.281	-1.490	-13.709
263596.171	38.743	39.637	100.434	91.493	61.691	-43.511	55.730	38.147
263596.179	-30.994	-30.398	29.206	26.226	-22.054	-104.904	-13.113	-33.677
263596.187	13.113	15.199	68.247	71.228	25.630	-65.267	32.783	2.384
263596.195	-4.470	-1.788	46.194	53.346	10.133	-70.035	17.285	2.384
263596.203	2.384	1.788	62.585	59.009	22.352	-70.035	24.438	5.066
263596.211	-2.086	-1.788	54.538	56.624	19.073	-63.479	47.684	5.960
263596.219	-64.969	-65.565	2.384	-5.364	-43.511	-123.680	-40.233	-53.942
263596.227	48.578	50.664	114.143	108.182	66.459	-55.730	34.571	23.544
263596.235	16.391	21.458	75.996	76.890	28.312	-78.976	10.431	0.000
263596.243	21.160	26.226	74.506	85.533	15.497	-113.845	-20.266	-47.982
263596.251	63.479	68.247	116.229	122.190	64.671	-81.956	8.643	-13.113
263596.259	38.147	41.723	99.838	98.646	52.452	-101.924	-15.199	-25.332
263596.267	130.534	136.197	184.178	190.139	142.753	-42.915	58.711	38.743
263596.275	47.088	50.962	92.983	106.990	47.088	-109.971	-16.391	-39.339
263596.283	45.300	45.002	102.222	98.348	64.075	-101.328	-6.258	-22.650
263596.291	74.506	75.400	137.687	126.362	103.116	-50.962	43.213	31.292
263596.297	-2.086	6.258	54.538	59.903	7.451	-92.089	-5.066	-11.027
263596.305	68.545	74.506	126.958	138.879	80.466	-50.962	48.876	25.928
263596.313	59.605	61.989	121.295	125.170	85.235	-66.459	26.524	9.239
263596.321	60.201	60.499	110.567	124.872	70.035	-57.817	33.677	16.093
263596.329	48.280	51.558	102.818	106.394	55.134	-68.843	32.187	-9.835
263596.337	28.908	30.696	91.791	81.062	42.617	-74.804	4.768	-6.855
263596.345	95.069	107.586	147.223	178.814	101.626	-5.960	78.678	64.969
263596.353	25.332	36.061	66.757	102.520	32.187	-63.777	20.862	-10.729
263596.361	50.366	63.181	102.222	130.236	53.346	-46.790	31.292	8.643
263596.369	124.574	133.216	177.622	195.801	132.024	27.418	118.315	91.195
263596.377	83.148	89.407	136.197	153.184	102.818	-22.650	63.181	45.598
263596.385	139.475	149.906	188.649	213.683	142.157	16.093	102.520	89.705
263596.393	93.579	101.626	140.667	166.893	87.023	-29.206	57.220	26.226
263596.401	112.355	115.633	165.105	177.026	121.295	-24.736	68.545	30.994
263596.409	121.891	128.746	167.787	186.265	124.276	-3.576	89.109	53.644
263596.417	102.520	105.500	148.118	167.489	104.308	-19.670	61.989	42.915
263596.425	159.740	163.615	201.166	222.623	155.270	26.226	113.249	90.599
263596.433	90.897	97.752	129.342	158.846	81.062	-32.485	49.472	14.603
263596.441	149.608	156.462	203.848	219.047	150.502	10.431	86.725	68.247
263596.449	151.396	160.038	195.503	217.259	146.627	15.795	96.262	72.718
263596.457	90.003	93.579	126.362	146.627	89.109	-34.273	43.511	20.862
263596.465	174.940	174.344	220.239	225.902	178.218	33.677	123.084	89.705
263596.473	133.216	135.601	171.661	192.225	129.640	4.172	82.850	62.883
263596.481	122.190	123.680	166.893	181.496	121.891	-14.603	63.777	41.425
263596.489	139.177	141.561	187.159	193.417	135.303	15.795	94.771	65.863
263596.497	107.586	110.567	143.051	167.191	104.904	-16.391	59.009	35.763
263596.505	174.642	180.900	211.000	237.226	177.324	33.081	116.825	94.175
263596.513	117.123	121.891	158.548	172.555	119.209	-4.470	67.651	51.558
263596.537	123.978	125.170	163.615	177.324	126.660	0.000	72.122	61.691
263596.545	139.773	143.349	176.430	205.040	135.899	10.431	87.321	67.651
263596.553	88.215	87.321	130.236	147.223	94.473	-33.677	42.021	15.199
263596.561	154.972	149.012	201.762	207.722	158.250	10.729	88.811	67.055
263596.569	118.017	115.931	160.933	166.893	120.997	-12.815	59.903	40.829
263596.577	136.793	135.303	175.238	183.880	143.647	2.980	79.870	55.134
263596.585	162.423	162.721	200.868	210.106	165.701	22.054	102.520	69.737
263596.593	98.646	97.156	145.435	146.329	107.884	-35.763	27.716	18.179
263596.601	130.534	132.620	174.940	184.774	144.839	-2.086	73.016	54.240
263596.609	96.262	99.838	142.753	146.627	111.163	-19.670	50.664	33.975
263596.617	125.468	126.958	168.681	178.218	137.091	5.364	73.016	69.141
263596.625	149.310	150.800	192.523	197.887	148.714	31.888	111.461	83.745
263596.633	100.136	102.222	154.376	141.561	103.414	-10.431	58.115	36.061
263596.641	152.588	155.270	212.193	206.828	168.085	23.544	101.030	75.698
263596.649	95.367	97.156	148.416	146.925	116.229	-28.014	36.955	17.583
263596.657	126.958	129.640	179.112	188.053	142.157	1.490	61.989	55.730
263596.665	140.667	144.243	179.708	203.848	152.588	14.901	86.725	69.439
263596.673	96.560	92.685	143.945	143.349	102.818	-28.312	35.465	26.822
263596.681	135.899	137.389	186.861	192.821	143.945	-2.384	75.400	39.637
263596.689	112.355	117.421	158.548	169.575	121.593	1.192	65.863	47.684
263596.697	118.017	117.719	165.999	168.681	129.044	9.835	75.400	62.883
263596.705	137.687	137.985	185.072	195.801	149.310	25.034	91.195	72.122
263596.713	84.043	85.831	129.044	146.925	99.540	-26.822	25.630	17.881
263596.721	111.461	118.613	151.992	182.986	123.978	-0.596	69.141	37.551
263596.729	86.725	91.493	122.190	151.992	100.732	-7.153	58.413	32.187
263596.737	109.076	111.759	143.051	170.767	128.448	15.795	80.168	59.903
263596.745	129.044	134.110	160.635	188.947	154.078	45.300	117.719	90.003
263596.753	65.267	72.420	97.156	126.362	86.725	-2.384	62.585	42.617
263596.757	95.665	103.116	125.766	163.317	111.461	27.120	97.156	72.122
263596.765	61.989	66.757	85.533	122.190	80.764	10.133	72.718	53.048
263596.773	86.129	91.195	119.805	149.310	116.527	32.783	96.262	74.208
263596.781	107.288	116.825	138.283	175.834	133.216	59.307	125.468	91.791
263596.789	55.134	62.585	86.129	106.692	74.804	35.167	101.626	67.949
263596.797	142.157	150.502	175.238	207.722	161.827	100.732	177.324	142.455
263596.805	112.653	120.699	141.561	185.072	144.243	65.267	126.362	109.971
263596.813	95.367	102.520	133.514	165.105	131.428	40.829	99.540	79.274
263596.821	118.911	125.468	147.521	187.457	137.687	69.737	142.455	97.454
263596.829	88.215	91.195	112.653	143.051	99.838	53.644	114.441	87.917
263596.837	160.635	166.595	178.218	229.180	177.026	123.382	188.351	159.442
263596.845	120.103	123.382	151.992	179.708	149.012	92.685	149.310	125.170
263596.853	106.692	112.355	155.568	164.807	125.468	67.055	127.256	98.944
263596.861	151.396	158.250	189.245	218.749	165.701	98.050	161.827	130.236
263596.869	94.771	101.328	123.978	155.270	113.547	49.472	101.626	83.745
263596.877	148.416	156.164	183.880	211.298	167.787	95.367	160.635	129.938
263596.885	133.216	143.647	160.336	189.543	154.078	104.904	166.297	146.329
263596.893	143.349	154.376	164.807	205.934	150.800	101.030	160.336	145.137
263596.901	149.310	156.462	182.986	212.193	158.846	87.917	154.078	121.295
263596.909	108.778	115.335	143.647	164.509	122.786	69.141	125.170	104.010
263596.917	147.820	156.164	176.132	199.676	160.038	104.904	167.191	132.620
263596.925	107.586	114.441	137.091	153.780	114.441	65.565	127.554	88.811
263596.933	141.859	147.521	166.893	205.934	148.714	81.956	140.667	108.778
