Timestamp	AFz	AF3	AF4	AF7	AF8	Pz	P3	P4	2023-07-21 14:07:16.910	fs=125
261152.956	157.356	157.058	-59.307	107.884	-59.307	279.248	239.015	191.927
261152.964	196.397	196.397	-19.073	151.396	-15.497	288.486	249.743	180.304
261152.972	167.191	167.191	-48.578	127.554	-34.869	285.804	239.313	196.695
261152.980	167.191	166.595	-46.790	135.303	-26.226	273.883	223.517	178.516
261152.988	185.668	183.582	-35.465	157.952	-3.874	281.930	243.485	181.198
261152.996	119.805	120.699	-94.175	95.963	-59.903	256.598	198.185	160.933
261153.004	182.688	185.966	-28.312	162.423	8.941	278.652	259.578	173.450
261153.012	144.541	147.521	-67.651	131.130	-21.458	254.810	207.126	170.767
261153.020	135.601	140.965	-70.930	129.044	-21.458	243.485	192.225	138.283
261153.028	163.019	166.297	-47.684	155.866	10.431	262.558	228.882	163.913
261153.036	129.342	134.408	-75.400	125.170	-14.901	256.002	199.378	172.257
261153.044	172.853	176.430	-33.975	169.873	30.100	255.704	224.113	150.502
261153.052	151.396	157.058	-54.836	151.396	14.901	257.790	223.815	170.767
261153.060	138.879	147.820	-59.903	138.879	6.855	247.657	200.868	142.753
261153.068	157.356	161.827	-47.088	158.548	31.590	254.512	214.279	149.608
261153.076	138.283	142.753	-61.095	147.223	18.477	260.472	198.185	176.132
261153.084	183.582	187.457	-16.987	191.629	66.161	278.354	248.253	175.536
261153.092	129.044	133.812	-67.055	136.495	17.881	254.214	215.173	162.125
261153.100	113.547	121.891	-76.890	127.256	6.557	231.564	194.907	123.382
261153.108	153.482	160.933	-39.637	165.999	51.260	258.982	224.411	155.270
261153.116	98.050	106.394	-87.321	111.461	2.384	235.438	172.853	145.733
261153.124	129.938	139.773	-57.817	148.416	36.955	231.862	192.225	125.468
261153.132	88.513	100.136	-94.175	106.394	2.086	218.153	168.085	131.130
261153.140	101.328	115.633	-79.572	120.699	17.881	223.517	169.575	124.574
261153.148	124.276	136.793	-59.903	143.051	41.425	241.995	210.702	146.329
261153.156	84.937	95.069	-94.771	101.924	8.047	226.796	168.383	141.263
261153.164	114.739	123.680	-66.161	129.938	39.935	213.087	163.615	103.414
261153.172	80.168	87.619	-98.348	99.242	10.729	200.868	144.243	122.190
261153.163	86.725	96.858	-83.447	109.375	20.564	206.828	153.184	116.527
261153.171	111.461	119.805	-62.287	134.110	49.472	218.451	196.993	127.554
261153.179	62.287	73.314	-103.414	84.043	7.153	199.378	137.091	113.547
261153.187	101.626	118.017	-66.161	126.064	46.194	217.557	182.092	109.375
261153.195	65.863	81.062	-98.944	89.109	13.709	212.193	169.575	128.448
261153.203	72.718	88.811	-87.619	97.156	24.736	201.166	149.012	106.394
261153.211	107.288	120.997	-57.518	132.322	61.393	219.345	185.668	123.978
261153.219	62.883	78.976	-97.454	92.983	21.458	194.907	139.773	116.527
261153.227	115.931	129.342	-48.280	149.906	75.698	205.934	173.748	114.143
261153.235	81.956	96.560	-80.168	118.613	47.684	201.762	161.231	134.408
261153.243	76.294	94.771	-80.168	111.461	42.617	192.523	162.125	106.394
261153.251	95.367	114.143	-60.201	127.554	65.267	194.013	171.363	108.182
261153.259	52.452	71.526	-94.771	90.599	28.610	185.966	136.197	112.951
261153.267	112.355	130.236	-37.253	152.290	87.619	203.252	168.979	116.229
261153.275	63.181	78.380	-87.619	100.732	44.405	185.370	137.985	107.586
261153.283	51.856	68.247	-97.156	91.493	33.379	163.019	118.613	72.718
261153.291	81.062	97.752	-66.161	120.103	70.632	175.834	143.647	88.215
261153.299	45.002	66.459	-93.579	89.705	38.743	167.191	117.719	96.262
261153.307	83.745	98.944	-53.346	126.064	81.360	172.853	143.051	84.639
261153.315	42.915	58.413	-92.089	85.235	43.213	159.442	118.315	89.705
261153.323	47.386	70.333	-83.447	99.838	47.982	140.965	99.540	53.346
261153.331	89.109	110.567	-46.790	140.369	90.897	173.450	146.031	96.262
261153.339	61.989	85.235	-67.651	117.719	67.353	173.151	137.985	101.626
261153.347	74.506	97.156	-56.028	131.726	83.447	163.615	139.475	74.506
261153.355	28.610	48.876	-97.454	84.937	44.703	142.753	105.500	65.565
261153.363	33.975	56.624	-89.705	95.069	52.750	137.091	106.990	49.472
261153.371	46.492	71.228	-78.380	108.182	68.247	155.568	129.044	81.062
261153.379	1.192	27.716	-115.633	67.055	27.120	136.495	89.407	71.526
261153.400	50.366	77.188	-70.930	122.488	77.784	150.502	129.342	66.161
261153.408	3.278	30.398	-110.567	75.400	33.975	136.197	101.626	67.949
261153.416	15.199	40.233	-93.877	84.043	48.876	131.130	97.454	52.750
261153.424	33.379	58.711	-79.870	102.520	68.843	136.495	106.394	56.326
261153.432	-2.682	24.140	-104.606	71.526	38.147	124.574	81.956	53.942
261153.440	47.982	74.804	-59.605	120.401	88.811	146.925	135.601	53.346
261153.448	30.398	55.432	-76.890	99.838	75.102	158.250	144.839	95.069
261153.456	15.795	41.425	-84.341	89.407	63.181	127.554	82.552	48.876
261153.464	18.179	37.551	-84.937	88.215	70.035	133.216	106.394	53.048
261153.472	-14.603	9.537	-120.699	65.565	35.465	113.249	78.678	43.511
261153.480	47.684	78.678	-66.161	138.879	93.877	133.514	121.891	49.174
261153.488	23.246	49.770	-79.572	112.653	76.890	139.177	113.547	74.208
261153.496	10.133	37.849	-86.427	98.050	67.353	116.825	81.956	31.590
261153.504	24.736	50.068	-73.612	107.586	85.235	128.746	116.229	49.770
261153.512	-9.239	20.564	-96.262	78.678	56.028	126.362	106.394	61.989
261153.520	25.928	54.836	-63.777	112.653	94.771	112.653	110.269	30.696
261153.528	-4.768	23.544	-90.003	83.447	70.035	106.990	82.254	43.511
261153.536	-2.682	28.908	-82.254	88.811	71.228	102.222	66.161	19.073
261153.544	18.179	49.472	-64.075	107.288	94.175	124.276	105.798	44.107
261153.552	-15.199	19.073	-88.513	81.360	66.161	110.269	77.486	47.386
261153.560	37.551	66.459	-36.061	133.216	116.825	120.401	112.057	42.915
261153.568	0.298	27.418	-72.420	94.473	87.917	103.116	85.235	39.935
261153.576	1.490	32.485	-67.651	95.665	92.685	83.447	69.737	9.537
261153.584	28.312	57.817	-43.213	123.084	117.123	108.778	109.375	38.743
261153.592	-5.662	22.948	-67.949	84.639	88.811	88.811	55.134	28.908
261153.600	41.127	70.035	-21.756	128.448	138.879	97.454	89.109	27.418
261153.608	23.544	53.644	-32.783	113.547	126.958	108.480	92.983	57.817
261153.616	27.418	59.009	-26.524	118.911	129.640	89.407	75.698	25.034
261153.622	31.888	58.711	-29.802	120.401	134.408	85.533	82.552	16.093
261153.630	-6.258	20.564	-61.393	85.831	99.242	52.154	22.650	-11.921
261153.638	42.617	69.737	-11.921	132.918	149.608	75.400	65.863	3.278
261153.646	19.670	45.002	-30.398	111.759	129.938	89.407	66.161	38.445
261153.654	28.312	58.115	-15.199	120.699	141.561	81.956	64.075	12.815
261153.662	39.339	67.949	-5.066	129.938	158.250	86.129	74.506	34.869
261153.670	-2.682	28.014	-37.551	91.195	118.613	66.459	38.743	18.775
261153.678	50.366	74.804	13.709	132.918	167.191	78.678	65.267	9.835
261153.686	22.054	49.174	-9.835	109.375	146.329	78.976	57.220	28.908
261153.694	39.935	72.420	9.239	137.389	164.807	60.499	47.386	-0.894
261153.702	54.836	86.725	22.650	147.521	182.986	78.082	78.678	28.610
261153.710	25.332	58.413	1.490	119.209	158.250	63.777	51.260	20.564
261153.718	55.134	83.745	30.100	146.925	190.139	61.393	70.333	3.278
261153.726	24.140	55.432	2.682	112.951	159.144	64.969	40.829	19.670
261153.734	39.339	75.698	19.968	133.514	174.642	51.260	33.379	1.192
261153.742	56.624	89.705	33.975	150.502	194.907	64.373	60.499	19.372
261153.750	18.179	51.558	5.662	112.653	158.846	35.763	13.709	2.682
261153.758	55.134	87.321	40.829	147.223	193.417	40.531	38.445	-6.258
261153.766	28.610	60.499	16.689	115.931	172.257	40.829	19.670	10.431
261153.774	41.723	72.718	32.485	133.216	187.457	37.849	25.332	-12.517
261153.782	50.366	81.360	34.571	141.263	194.013	45.002	47.684	4.172
261153.790	15.199	48.578	8.941	105.202	163.615	28.908	2.980	-8.047
261153.798	74.804	107.586	64.075	163.913	220.537	54.836	59.903	7.153
261153.806	34.571	66.459	26.524	123.382	180.900	39.041	26.524	7.451
261153.814	42.021	75.102	43.213	131.726	193.417	33.081	20.564	-10.729
261153.822	42.915	74.208	45.300	129.938	195.205	37.253	32.187	-1.490
261153.830	17.881	54.836	21.756	110.269	169.277	25.332	5.364	-5.066
261153.838	60.201	96.262	58.711	152.290	211.298	41.127	45.002	2.980
261153.842	27.120	62.883	27.418	116.527	180.006	35.763	25.034	19.968
261153.850	25.630	60.797	28.610	116.825	175.834	16.689	13.709	-12.219
261153.858	37.849	68.843	38.445	120.997	190.735	31.888	39.637	11.921
261153.866	-0.298	31.292	9.537	83.745	155.866	7.749	-18.477	-5.364
261153.874	57.817	91.195	62.287	143.945	209.808	24.438	26.822	-3.576
261153.882	10.133	47.088	16.987	98.050	163.019	0.596	-9.239	-3.576
261153.890	26.524	61.095	33.975	112.653	178.814	-0.596	-11.325	-19.670
261153.898	36.359	71.228	43.511	122.786	190.735	17.583	15.199	2.980
261153.906	-4.172	28.908	10.431	78.976	152.886	-1.192	-14.901	-11.921
261153.914	16.093	45.896	26.226	96.560	174.344	-4.768	1.788	-22.650
261153.922	-15.497	19.968	-5.960	72.122	142.455	1.192	-14.007	4.172
261153.930	34.273	75.698	38.743	135.005	180.900	-4.768	-14.007	-16.093
261153.938	43.213	83.745	40.531	144.839	184.476	-5.960	-8.047	-5.662
261153.946	40.233	84.937	40.531	149.310	175.536	0.596	-14.007	3.576
261153.954	94.771	142.753	84.937	207.722	222.325	30.696	31.590	14.305
261153.962	59.605	106.990	55.730	172.257	189.245	27.418	11.921	35.167
261153.970	73.612	119.805	71.526	186.861	202.358	22.948	11.027	19.670
261153.978	62.883	106.394	52.750	180.006	190.735	13.709	9.537	1.788
261153.986	17.583	65.565	11.027	136.495	145.733	-6.855	-27.716	-11.921
261153.994	64.373	108.778	52.750	178.814	195.205	5.066	4.768	-5.066
261154.002	29.206	70.930	20.862	137.091	166.893	1.490	-18.477	10.133
261154.010	41.127	84.043	31.888	150.800	176.430	1.192	-3.874	-5.364
261154.018	41.723	80.466	27.120	147.820	177.324	11.027	20.564	14.007
261154.026	13.113	55.432	5.066	126.660	150.502	0.596	-22.948	2.682
261154.034	47.088	88.215	34.869	156.760	183.284	9.239	6.855	-3.278
261154.042	-8.047	33.677	-17.881	103.712	130.832	-14.305	-33.379	-4.768
261154.050	-0.596	41.425	-9.239	109.971	136.793	-24.438	-34.869	-19.372
261154.058	21.756	60.797	9.537	126.064	159.442	1.490	9.835	10.133
261154.064	-21.458	21.458	-27.120	83.745	118.911	-26.226	-45.896	-18.775
261154.072	20.862	62.883	4.768	129.640	161.827	-21.160	-18.477	-25.034
261154.080	-9.835	32.783	-26.822	99.838	130.534	-20.266	-22.948	-8.941
261154.088	13.709	57.817	-1.490	125.170	153.482	-16.093	-17.583	-14.305
261154.096	23.544	61.393	2.682	125.468	163.615	1.788	20.266	8.345
261154.104	-11.921	27.418	-25.034	90.003	130.534	-14.007	-24.438	-2.980
261154.112	29.802	66.757	9.537	133.216	168.681	1.490	-6.855	2.384
261154.120	-5.960	30.994	-25.928	96.858	134.110	-12.517	-26.226	-2.086
261154.128	-0.596	38.147	-22.054	100.136	136.197	-20.564	-24.736	-28.014
261154.136	21.160	57.220	-6.258	118.613	161.827	10.431	18.477	16.093
261154.144	-14.603	30.100	-30.696	88.811	129.342	-10.133	-32.187	-0.894
261154.152	19.968	61.393	-1.788	117.719	159.144	-5.066	-2.682	-12.219
261154.160	-4.768	36.061	-28.610	96.262	138.283	4.172	-4.172	19.670
261154.168	14.007	57.518	-11.027	118.613	155.270	1.490	-6.855	1.788
261154.176	15.199	53.346	-15.795	110.567	153.780	0.000	5.066	3.576
261154.184	-8.345	31.888	-35.167	92.387	132.918	-5.662	-11.027	5.960
261154.192	29.504	67.353	-5.066	122.190	169.873	0.000	7.749	-2.384
261154.200	-0.894	36.359	-33.975	91.195	138.581	7.749	-8.643	27.716
261154.208	10.133	52.154	-19.372	104.308	145.733	-7.451	-15.497	-4.470
261154.216	3.874	44.405	-30.398	95.963	140.369	-11.325	-8.643	-4.172
261154.224	-19.670	19.968	-52.452	67.651	115.633	-14.603	-19.073	-5.662
261154.232	23.246	66.757	-11.921	116.229	156.164	2.980	25.034	0.000
261154.240	-18.179	24.438	-46.790	71.824	120.401	-11.325	-14.007	1.490
261154.248	2.682	46.492	-22.650	94.175	135.601	-6.855	-0.298	-7.153
261154.256	5.364	49.770	-29.802	94.175	135.303	-1.490	14.901	5.364
261154.264	-29.802	15.497	-61.691	58.711	104.606	-7.451	-16.689	-3.278
261154.272	14.007	56.326	-21.458	99.242	149.310	6.258	18.477	2.682
261154.280	-25.630	14.603	-61.989	52.452	107.884	-5.066	-10.133	12.815
261154.286	-6.258	41.425	-42.021	71.526	123.680	-2.384	4.172	-4.768
261154.294	-1.788	44.703	-42.617	71.228	129.938	10.133	25.630	13.411
261154.302	11.027	61.095	-19.073	74.506	147.521	-6.855	-8.941	1.788
261154.310	91.791	141.263	63.181	130.832	235.140	-0.596	18.775	-5.364
261154.318	82.850	131.726	68.843	107.288	235.736	-11.325	-12.219	-1.788
261154.326	118.911	170.767	108.778	129.342	276.268	-12.517	-17.583	-10.729
261154.334	132.024	172.853	120.103	114.739	294.149	9.835	20.564	17.285
261154.342	75.102	113.249	68.843	57.220	239.313	-18.179	-31.590	-5.364
261154.350	92.387	132.024	79.274	67.651	256.002	-12.219	-5.662	-5.066
261154.358	30.994	69.737	11.325	3.278	188.351	-23.842	-26.524	-0.298
261154.366	19.372	52.750	1.490	-8.047	173.450	-44.107	-47.088	-37.849
261154.374	4.768	36.657	-25.332	-27.716	155.866	-25.034	-19.670	-8.047
261154.382	-38.743	-1.192	-63.181	-66.757	111.163	-37.253	-56.624	-18.477
261154.390	-17.285	19.968	-45.896	-48.876	128.746	-26.524	-14.603	-20.564
261154.398	-68.843	-30.994	-99.838	-101.328	77.784	-30.398	-40.829	-4.172
261154.406	-61.989	-26.226	-95.963	-100.136	80.764	-38.147	-41.127	-33.677
261154.414	-64.671	-32.187	-100.434	-107.586	77.784	-28.610	-23.842	-4.172
261154.422	-101.626	-67.055	-128.746	-146.627	43.213	-36.955	-47.088	-13.709
261154.430	-56.326	-19.670	-90.003	-101.924	83.148	-23.544	-9.239	-12.219
261154.438	-107.884	-73.016	-138.879	-149.608	31.292	-44.405	-57.817	-19.073
261154.446	-106.096	-71.228	-137.389	-152.588	27.418	-50.366	-71.824	-49.174
261154.454	-96.262	-66.757	-133.514	-156.164	36.061	-25.332	-38.743	-9.537
261154.462	-135.601	-101.626	-167.489	-193.119	-5.364	-33.379	-64.969	-20.266
261154.470	-106.990	-71.228	-143.349	-162.423	22.352	-33.677	-30.100	-30.398
261154.478	-144.243	-109.971	-181.794	-201.464	-14.007	-40.531	-60.797	-14.603
261154.486	-130.534	-94.175	-167.191	-190.139	-3.576	-47.386	-57.518	-48.876
261154.494	-114.143	-77.188	-153.184	-172.555	13.709	-24.140	-14.901	-15.199
261154.502	-150.502	-108.480	-182.092	-208.020	-19.968	-37.253	-58.115	-13.709
261154.507	-122.488	-81.062	-154.674	-182.688	5.662	-33.081	-28.014	-25.034
261154.515	-172.555	-132.620	-200.868	-236.034	-45.598	-56.922	-68.843	-25.928
261154.523	-148.118	-107.586	-177.920	-211.596	-24.438	-58.115	-62.883	-36.359
261154.531	-143.051	-101.328	-174.344	-208.318	-16.987	-46.194	-35.167	-26.226
261154.539	-182.688	-137.687	-207.722	-239.313	-53.942	-61.095	-78.678	-37.849
261154.547	-149.608	-106.394	-182.092	-206.828	-27.716	-49.770	-47.386	-42.319
261154.555	-192.821	-153.184	-222.623	-253.022	-69.737	-63.181	-67.949	-38.147
261154.563	-167.191	-123.978	-187.755	-225.902	-43.511	-60.499	-59.605	-48.578
261154.571	-163.317	-120.699	-185.966	-226.796	-41.127	-49.472	-45.002	-29.504
261154.579	-205.636	-160.635	-222.921	-264.943	-86.129	-69.439	-87.023	-50.366
261154.587	-163.317	-121.593	-187.457	-230.372	-42.617	-55.730	-53.644	-47.982
261154.595	-201.464	-158.548	-221.133	-267.923	-81.956	-64.075	-75.400	-34.273
261154.603	-178.814	-131.726	-197.589	-230.968	-64.373	-63.479	-67.949	-54.538
261154.611	-168.383	-123.382	-186.861	-226.498	-46.790	-46.194	-33.975	-21.458
261154.619	-204.146	-158.250	-216.067	-265.837	-82.254	-75.698	-87.321	-45.598
261154.627	-163.615	-119.805	-179.112	-232.756	-46.492	-62.883	-65.267	-43.213
261154.635	-213.981	-171.959	-230.074	-276.268	-97.752	-76.592	-85.533	-44.107
261154.643	-197.589	-154.376	-215.471	-261.068	-83.447	-80.764	-91.493	-69.439
261154.651	-189.841	-146.329	-211.895	-253.618	-76.592	-69.439	-73.016	-47.386
261154.659	-221.133	-179.112	-236.630	-287.890	-105.798	-91.493	-100.434	-63.777
261154.667	-187.755	-146.031	-204.146	-257.492	-76.294	-82.254	-78.380	-63.777
261154.675	-229.180	-183.284	-242.889	-295.341	-115.931	-91.493	-103.712	-54.836
261154.683	-208.616	-162.125	-222.027	-279.844	-97.752	-95.665	-98.348	-71.526
261154.691	-204.742	-157.356	-220.239	-272.691	-92.983	-88.513	-89.109	-56.922
261154.699	-227.988	-177.920	-237.525	-290.275	-115.335	-98.646	-114.739	-59.605
261154.707	-185.072	-136.197	-194.311	-253.916	-74.208	-90.599	-78.082	-60.201
261154.715	-231.564	-179.410	-238.121	-297.129	-119.209	-99.540	-108.182	-54.538
261154.723	-209.510	-155.866	-213.981	-273.585	-99.540	-109.673	-111.759	-79.870
261154.746	-211.895	-162.721	-214.875	-286.698	-98.050	-111.163	-115.335	-74.804
261154.754	-287.294	-238.717	-282.228	-358.820	-171.065	-129.938	-142.455	-94.473
261154.762	-224.710	-166.893	-233.650	-279.546	-121.891	-121.295	-108.182	-91.493
261154.770	-246.763	-184.476	-254.512	-290.275	-151.694	-121.295	-126.064	-68.843
261154.778	-220.239	-157.058	-225.902	-253.320	-135.005	-121.891	-123.680	-90.003
261154.786	-198.781	-133.812	-211.895	-226.200	-121.593	-104.308	-90.003	-61.095
261154.794	-231.564	-159.144	-240.505	-242.293	-161.827	-110.865	-116.825	-67.949
261154.802	-193.715	-124.276	-205.934	-205.934	-125.170	-109.971	-98.646	-81.956
261154.810	-245.571	-179.410	-254.214	-260.770	-171.065	-117.719	-117.421	-74.506
261154.818	-225.306	-153.780	-232.756	-240.505	-154.674	-107.288	-100.732	-80.168
261154.826	-212.789	-141.263	-220.835	-225.306	-141.859	-99.838	-89.407	-54.240
261154.834	-248.253	-177.026	-253.916	-264.347	-177.622	-126.064	-133.514	-84.937
261154.842	-204.146	-132.322	-211.895	-222.623	-135.303	-104.606	-86.725	-78.380
261154.850	-244.379	-171.661	-240.207	-260.472	-172.257	-98.050	-97.156	-62.287
261154.858	-225.008	-155.568	-215.769	-243.485	-157.356	-98.944	-96.560	-77.784
261154.866	-218.153	-150.502	-212.193	-238.717	-149.012	-105.798	-99.838	-63.479
261154.874	-240.505	-173.151	-227.392	-266.433	-170.767	-115.931	-124.574	-74.208
261154.882	-196.993	-126.064	-188.351	-225.902	-131.726	-93.281	-66.161	-67.055
261154.890	-242.591	-171.363	-230.968	-268.221	-177.026	-118.613	-117.421	-80.764
261154.898	-226.200	-156.164	-211.000	-256.598	-159.144	-123.084	-117.421	-96.262
261154.906	-213.385	-144.541	-196.993	-250.638	-146.627	-98.646	-64.075	-46.790
261154.914	-256.896	-187.457	-231.266	-296.533	-191.331	-124.872	-113.845	-83.447
261154.922	-196.397	-130.236	-178.218	-239.909	-135.005	-101.030	-75.102	-81.062
261154.930	-229.776	-163.317	-209.808	-272.095	-167.489	-108.182	-108.778	-65.267
261154.938	-196.695	-127.554	-170.171	-237.525	-134.408	-110.865	-97.454	-75.698
261154.946	-186.563	-119.805	-159.740	-232.756	-123.382	-103.712	-84.639	-76.592
261154.954	-226.498	-158.846	-193.119	-271.797	-162.125	-116.229	-121.593	-90.301
261154.962	-194.311	-128.150	-161.529	-242.889	-130.236	-111.461	-112.057	-95.963
261154.965	-235.438	-168.383	-199.676	-280.142	-172.257	-104.904	-115.335	-71.526
261154.973	-203.848	-136.793	-166.893	-246.763	-143.051	-96.560	-95.665	-87.917
261154.981	-172.257	-107.884	-138.283	-225.604	-109.971	-53.346	-42.021	-36.359
261154.989	-194.907	-129.938	-155.270	-238.121	-130.534	-67.651	-75.698	-42.021
261154.997	-156.760	-93.579	-120.699	-198.781	-90.897	-68.247	-58.711	-57.817
261155.005	-190.735	-125.766	-153.482	-231.266	-121.891	-69.737	-88.215	-47.684
261155.013	-151.992	-88.215	-113.249	-190.735	-84.043	-63.181	-59.605	-63.479
261155.021	-126.064	-66.161	-83.447	-168.085	-54.240	-38.147	-26.822	-19.073
261155.029	-162.423	-97.752	-116.229	-194.907	-89.109	-47.088	-64.969	-33.379
261155.037	-104.606	-42.021	-59.605	-138.879	-27.418	-35.763	-36.359	-42.021
261155.045	-122.488	-61.989	-71.228	-158.548	-38.445	-40.531	-52.154	-33.677
261155.053	-91.493	-27.120	-32.783	-124.872	-3.874	-45.300	-48.876	-57.220
261155.061	-84.937	-22.650	-22.650	-126.660	7.153	-37.849	-38.743	-31.590
261155.069	-106.990	-42.319	-42.617	-141.859	-13.411	-42.915	-59.307	-33.975
261155.077	-70.035	-8.047	-12.517	-104.904	22.948	-39.935	-38.147	-48.578
261155.085	-106.096	-45.300	-44.703	-135.303	-9.835	-48.876	-57.817	-34.273
261155.093	-81.658	-21.458	-16.093	-109.076	15.199	-52.750	-53.644	-60.797
261155.101	-84.341	-25.034	-17.583	-113.547	14.007	-49.174	-57.220	-45.002
261155.109	-109.673	-47.982	-34.273	-138.879	-9.537	-59.605	-82.850	-52.452
261155.117	-74.506	-15.795	-1.192	-104.904	25.034	-54.538	-44.107	-61.691
261155.125	-120.997	-62.287	-46.492	-150.800	-16.093	-60.499	-73.612	-48.280
261155.133	-98.050	-36.061	-17.583	-121.891	5.364	-56.922	-66.161	-63.479
261155.141	-96.262	-36.955	-20.266	-118.911	5.960	-52.452	-64.671	-51.856
261155.149	-113.845	-56.922	-33.975	-140.369	-8.345	-61.691	-76.592	-54.836
261155.157	-79.274	-26.524	0.894	-107.884	24.140	-54.836	-47.982	-56.922
261155.165	-140.667	-86.129	-54.240	-164.509	-34.273	-78.082	-92.983	-62.883
261155.173	-123.680	-62.883	-32.783	-145.435	-16.689	-76.890	-78.082	-76.890
261155.181	-126.362	-62.883	-38.147	-142.157	-21.458	-74.506	-65.565	-59.009
261155.170	-158.548	-100.732	-64.969	-175.238	-51.558	-101.626	-123.084	-83.745
261155.178	-111.163	-53.644	-22.948	-132.322	-7.749	-80.764	-74.804	-76.294
261155.186	-157.952	-99.838	-66.459	-179.708	-52.750	-91.195	-105.798	-70.632
261155.194	-129.342	-70.930	-38.147	-142.753	-23.842	-85.831	-89.407	-82.254
261155.202	-124.574	-69.737	-38.147	-143.349	-16.093	-80.764	-75.102	-62.585
261155.210	-157.654	-95.069	-58.115	-169.873	-48.876	-106.692	-122.488	-95.963
261155.218	-115.335	-52.750	-19.073	-135.005	-6.855	-96.262	-90.599	-96.858
261155.226	-147.820	-90.897	-50.068	-166.893	-37.551	-90.897	-100.434	-69.439
261155.234	-115.335	-56.326	-11.921	-134.408	-6.258	-86.427	-89.407	-86.129
261155.242	-100.732	-43.213	-0.298	-119.507	8.643	-78.678	-71.824	-62.585
261155.250	-128.448	-68.843	-24.736	-141.263	-20.266	-98.050	-104.904	-75.698
261155.258	-85.831	-28.610	15.199	-105.500	21.160	-83.447	-67.353	-70.632
261155.266	-135.899	-79.572	-30.398	-154.972	-26.822	-95.963	-95.367	-70.632
261155.274	-114.143	-55.432	-5.364	-125.170	-7.451	-112.057	-111.461	-105.500
261155.282	-108.182	-50.962	-1.192	-123.680	-0.596	-102.520	-99.242	-85.533
261155.290	-118.911	-57.817	-3.874	-129.044	-7.749	-110.269	-113.845	-90.301
261155.298	-69.141	-13.411	44.107	-86.129	40.233	-91.493	-75.400	-76.890
261155.306	-119.209	-64.671	-1.490	-136.793	-9.835	-106.990	-104.010	-78.976
261155.314	-86.427	-30.100	34.571	-96.858	20.862	-100.434	-82.850	-85.831
261155.322	-98.944	-46.194	20.266	-112.951	9.537	-106.394	-96.858	-84.043
261155.330	-142.753	-87.023	-16.689	-152.290	-35.167	-138.581	-142.157	-123.382
261155.338	-83.447	-29.206	36.657	-103.712	24.438	-111.163	-92.983	-97.454
261155.346	-114.739	-61.989	8.345	-135.899	-5.662	-112.653	-107.884	-79.572
261155.354	-78.678	-22.054	49.472	-92.685	28.908	-103.116	-92.685	-83.148
261155.362	-88.215	-37.849	37.849	-104.904	19.670	-114.441	-97.454	-83.148
261155.370	-126.958	-76.294	2.980	-138.879	-19.670	-158.250	-157.952	-130.534
261155.378	-75.698	-26.226	49.174	-90.599	30.100	-141.561	-115.037	-123.978
261155.386	-114.739	-61.691	13.709	-124.574	-8.643	-148.714	-144.839	-102.818
261155.393	-95.367	-45.002	36.657	-109.375	9.835	-148.118	-139.475	-123.680
261155.401	-88.215	-39.935	40.233	-99.838	16.689	-124.872	-96.262	-91.791
261155.409	-86.725	-34.273	45.002	-86.725	14.603	-129.938	-126.362	-88.513
261155.417	-52.154	-4.172	81.360	-55.134	50.962	-116.229	-91.493	-85.533
261155.425	-105.798	-55.432	35.167	-103.712	1.490	-127.852	-126.362	-92.685
261155.433	-82.850	-31.292	53.644	-81.658	20.564	-138.283	-119.805	-115.335
261155.441	-64.969	-16.987	72.420	-71.228	37.253	-115.335	-84.639	-68.247
261155.449	-89.109	-34.571	56.624	-88.513	11.921	-129.342	-104.904	-90.897
261155.457	-55.134	-6.557	87.321	-54.240	46.194	-127.256	-97.752	-91.791
261155.465	-106.096	-60.201	40.829	-106.692	0.596	-144.541	-141.859	-93.877
261155.473	-74.506	-27.418	77.784	-75.400	29.802	-136.197	-112.057	-106.394
261155.481	-81.360	-33.975	72.420	-83.745	19.073	-132.024	-96.262	-87.023
261155.489	-110.269	-63.479	52.452	-109.375	-8.643	-154.674	-136.793	-100.434
261155.497	-64.373	-16.987	95.069	-54.836	37.849	-149.310	-122.488	-101.328
261155.505	-103.414	-54.538	56.326	-95.367	0.000	-163.317	-137.091	-105.798
261155.513	-70.035	-23.246	93.579	-66.459	33.379	-155.866	-128.746	-110.269
261155.521	-74.804	-32.783	87.023	-76.592	31.888	-144.839	-120.997	-83.447
261155.529	-98.348	-50.366	72.718	-89.109	7.153	-156.462	-144.243	-106.692
261155.537	-49.770	-1.490	116.229	-41.127	52.452	-137.389	-103.414	-98.944
261155.545	-96.560	-50.664	75.400	-90.003	10.431	-152.588	-126.660	-90.301
261155.553	-67.353	-26.226	107.288	-64.373	39.935	-152.290	-127.852	-107.586
261155.561	-66.757	-25.928	106.692	-69.141	40.531	-139.773	-106.394	-76.294
261155.569	-84.937	-38.743	99.838	-78.082	22.650	-158.548	-152.886	-105.500
261155.577	-52.452	-8.643	125.766	-47.684	53.346	-155.270	-120.699	-108.778
261155.585	-94.771	-52.452	87.619	-93.877	14.901	-161.231	-152.886	-90.301
261155.593	-55.432	-13.411	128.448	-53.942	52.452	-163.615	-146.329	-106.394
261155.601	-68.247	-30.398	113.249	-70.333	43.213	-176.132	-161.231	-112.057
261155.609	-101.328	-63.777	87.619	-96.262	9.537	-205.040	-200.868	-148.714
261155.615	-51.260	-15.497	131.130	-50.664	56.326	-184.178	-154.972	-131.726
261155.623	-75.996	-38.445	110.269	-77.486	37.551	-166.595	-151.098	-83.447
261155.631	-58.413	-19.073	131.130	-59.903	53.942	-170.767	-153.184	-113.845
261155.639	-60.797	-25.034	130.534	-62.287	53.942	-171.363	-146.627	-109.375
261155.647	-88.215	-48.578	112.057	-89.407	27.120	-194.609	-175.238	-129.044
261155.655	-40.829	-5.662	157.952	-44.405	74.208	-179.112	-144.243	-118.017
261155.663	-88.513	-52.452	113.249	-89.407	26.524	-195.205	-188.649	-119.805
261155.671	-63.479	-25.034	143.945	-64.969	51.856	-190.437	-168.085	-132.620
261155.679	-81.956	-48.876	122.786	-86.427	32.485	-181.794	-152.588	-107.586
261155.687	-82.552	-42.915	121.295	-67.949	28.908	-188.351	-172.257	-115.335
261155.695	-30.398	9.537	167.191	-13.411	76.890	-163.615	-116.229	-101.924
261155.703	-97.752	-62.287	107.288	-87.321	13.113	-205.934	-182.986	-123.680
261155.711	-63.181	-27.418	142.455	-53.048	46.790	-194.013	-157.058	-136.495
261155.719	-69.439	-33.975	136.495	-52.750	42.319	-188.053	-157.952	-109.971
261155.727	-98.050	-63.479	115.633	-84.639	14.305	-216.663	-200.868	-137.985
261155.735	-56.922	-25.332	151.396	-48.876	50.962	-209.212	-167.787	-139.177
261155.743	-88.513	-56.624	123.084	-77.486	19.372	-195.205	-165.999	-104.606
261155.751	-62.287	-28.312	149.310	-52.154	46.492	-193.119	-162.721	-123.978
261155.759	-68.247	-34.571	139.475	-57.518	41.127	-193.119	-160.933	-107.586
261155.767	-87.917	-55.730	122.786	-74.506	16.987	-210.702	-185.966	-130.534
261155.775	-43.213	-12.219	163.615	-32.187	57.817	-194.311	-141.859	-133.514
261155.783	-87.321	-57.220	124.276	-75.698	18.179	-198.781	-167.787	-114.143
261155.791	-57.518	-26.524	151.992	-44.107	44.405	-198.185	-161.827	-122.488
261155.799	-60.499	-33.677	143.945	-53.346	43.809	-195.503	-157.356	-101.924
261155.807	-85.831	-58.413	128.150	-78.082	20.862	-212.193	-185.072	-124.574
261155.815	-39.041	-10.431	169.277	-26.226	61.989	-199.974	-159.144	-122.190
261155.823	-86.427	-56.624	127.852	-71.824	15.199	-204.146	-177.324	-110.269
261155.831	-47.088	-19.968	165.105	-34.869	51.558	-201.464	-150.204	-120.997
261155.854	-40.531	-16.093	169.277	-30.398	56.028	-185.668	-147.820	-91.791
261155.862	-67.055	-39.935	151.396	-54.538	29.504	-193.119	-167.191	-102.520
261155.870	-31.590	-7.749	178.814	-23.842	62.883	-186.265	-148.416	-110.269
261155.878	-86.427	-60.499	127.256	-73.910	9.835	-216.365	-196.099	-121.295
261155.886	-35.167	-11.921	175.238	-26.822	57.817	-206.232	-153.780	-118.017
261155.894	-39.339	-22.650	165.701	-40.233	56.028	-202.060	-162.721	-114.441
261155.902	-67.651	-40.233	141.859	-56.922	25.928	-216.365	-200.570	-129.640
261155.910	-15.795	8.345	190.735	-10.133	76.294	-201.464	-149.608	-123.978
261155.918	-67.055	-44.107	145.137	-60.201	24.438	-220.537	-204.146	-121.891
261155.926	-30.100	-6.258	182.688	-21.160	61.691	-215.173	-175.238	-126.958
261155.934	-31.292	-10.729	177.920	-28.312	60.201	-208.616	-159.144	-110.865
261155.942	-67.949	-44.405	144.541	-57.220	24.438	-228.882	-194.609	-144.243
261155.950	-26.524	-7.451	181.496	-16.391	67.353	-202.060	-152.290	-120.103
261155.958	-36.359	-20.564	181.496	-34.869	62.287	-213.981	-185.072	-108.480
261155.966	21.756	41.127	238.419	19.073	115.633	-206.530	-168.383	-121.593
261155.974	29.206	44.703	247.061	10.729	124.276	-205.934	-169.873	-103.712
261155.982	15.199	32.187	244.081	-7.153	112.355	-219.941	-194.907	-120.699
261155.990	68.247	79.274	294.745	38.445	166.893	-202.060	-146.627	-109.076
261155.998	15.497	26.524	239.015	-15.795	114.739	-216.961	-186.265	-112.653
261156.006	49.770	62.585	271.797	19.968	144.541	-210.404	-171.065	-126.064
261156.014	38.147	47.982	257.492	15.199	132.024	-209.510	-167.191	-109.375
261156.022	9.835	22.948	239.909	-10.431	105.798	-234.544	-213.683	-123.680
261156.030	65.863	81.658	291.169	44.703	159.442	-204.146	-163.317	-102.818
261156.038	25.630	39.339	255.704	8.941	120.699	-205.338	-168.085	-99.838
261156.046	43.809	56.922	275.671	21.160	139.773	-213.087	-177.622	-131.130
261156.054	36.955	47.982	266.433	13.709	134.706	-200.570	-168.383	-109.971
261156.062	5.662	16.391	239.611	-11.623	104.010	-208.020	-190.735	-120.997
261156.070	51.558	56.624	278.652	29.206	150.204	-187.457	-142.753	-108.182
261156.073	16.391	24.736	242.591	-2.682	112.951	-194.907	-156.760	-90.599
261156.081	52.750	62.287	278.354	36.061	147.521	-186.265	-135.303	-91.195
261156.089	40.829	46.194	264.645	19.968	134.110	-185.370	-139.773	-80.466
261156.097	-6.557	0.596	223.517	-20.564	88.513	-229.776	-199.974	-130.832
261156.105	33.081	38.743	257.492	13.709	124.276	-213.981	-161.231	-125.468
261156.113	-8.941	-1.192	217.855	-19.073	87.023	-219.643	-181.198	-104.010
261156.121	22.352	28.312	250.936	7.451	118.315	-228.286	-186.265	-130.236
261156.129	11.921	14.007	235.736	-14.007	107.288	-231.862	-190.437	-126.660
261156.137	-15.199	-8.643	211.000	-28.908	75.698	-237.525	-203.252	-132.918
261156.145	17.583	20.862	238.121	2.384	108.778	-221.133	-179.708	-133.812
261156.153	-37.849	-33.677	189.245	-47.386	55.432	-225.604	-198.483	-122.190
261156.161	-2.384	3.278	225.306	-8.643	89.109	-216.067	-166.595	-122.190
261156.169	5.960	7.451	229.180	-3.874	95.367	-201.762	-150.204	-99.838
261156.177	-6.855	-4.172	220.537	-19.372	82.850	-212.491	-177.622	-117.123
261156.185	19.073	20.266	240.207	6.258	106.990	-206.828	-148.416	-122.786
261156.193	-31.292	-29.802	192.821	-44.405	56.922	-227.988	-204.742	-127.554
261156.201	-6.855	-5.364	216.067	-19.670	79.572	-235.140	-192.225	-150.800
261156.209	-10.431	-8.643	208.914	-22.948	76.592	-236.034	-191.033	-133.812
261156.217	-9.537	-6.258	213.981	-16.689	76.890	-230.670	-201.762	-125.468
261156.225	48.280	45.300	261.962	35.167	130.534	-208.616	-149.906	-108.480
261156.233	11.325	9.537	227.094	2.384	95.069	-212.789	-180.304	-104.308
261156.241	50.068	50.962	266.433	40.531	134.110	-210.404	-170.469	-129.044
261156.249	45.598	41.127	257.790	31.292	130.534	-209.510	-166.297	-108.778
261156.257	32.485	30.696	249.445	18.179	115.633	-212.491	-181.794	-110.865
261156.265	68.545	64.075	274.479	56.922	149.608	-189.543	-140.965	-96.560
261156.273	25.034	21.756	236.630	16.689	112.057	-195.801	-158.250	-86.427
261156.281	87.023	81.956	304.282	68.545	180.006	-187.457	-130.236	-90.003
261156.289	71.526	58.115	285.208	44.703	163.019	-180.006	-137.985	-64.075
261156.295	32.783	22.948	248.253	10.133	123.680	-189.841	-157.654	-91.493
261156.303	54.240	46.194	262.260	37.253	140.369	-199.080	-157.356	-115.037
261156.311	-1.788	-9.537	211.895	-18.775	83.745	-225.902	-196.695	-121.891
261156.319	44.405	34.571	253.618	27.716	126.362	-200.272	-141.561	-113.547
261156.327	43.213	31.292	250.041	29.504	125.170	-185.072	-126.362	-83.745
261156.335	9.239	1.788	222.623	-2.086	87.917	-202.358	-183.880	-107.288
261156.343	38.445	28.014	242.293	20.862	113.547	-200.570	-155.270	-109.076
261156.351	-5.364	-15.199	202.358	-20.266	72.718	-203.550	-168.085	-101.626
261156.359	12.517	2.682	217.259	-3.576	90.301	-211.895	-154.972	-128.746
261156.367	-7.749	-21.160	194.609	-26.524	66.161	-209.808	-146.627	-109.673
261156.375	-35.167	-47.088	171.959	-50.068	32.783	-225.902	-182.986	-133.216
261156.383	14.007	-2.980	208.616	-3.278	79.572	-207.126	-151.396	-113.845
261156.391	-28.014	-42.915	171.363	-47.088	40.531	-213.087	-174.046	-107.288
261156.399	2.980	-6.557	202.656	-10.431	66.459	-215.769	-152.588	-135.005
261156.407	1.788	-10.729	199.676	-17.881	68.545	-196.099	-133.514	-94.175
261156.415	-28.908	-37.551	174.344	-45.300	36.657	-213.981	-173.748	-124.276
261156.423	16.689	6.855	210.404	-0.894	78.380	-199.974	-141.561	-113.845
261156.431	-44.107	-52.750	156.462	-62.883	19.073	-216.365	-180.304	-106.096
261156.439	-13.709	-22.054	182.390	-32.485	45.896	-217.259	-170.171	-131.130
261156.447	-11.325	-24.736	179.410	-31.590	46.492	-198.483	-148.118	-104.904
261156.455	-30.398	-43.213	168.383	-48.578	29.504	-212.193	-172.555	-116.527
261156.463	6.557	-10.133	195.205	-17.583	61.691	-215.173	-169.575	-124.872
261156.471	-37.849	-51.260	155.866	-55.134	16.093	-216.961	-193.417	-112.355
261156.479	4.470	-11.027	197.589	-8.345	56.326	-205.934	-155.568	-118.315
261156.487	-8.345	-24.438	180.602	-22.650	42.617	-193.715	-139.475	-99.242
261156.495	-25.034	-38.743	168.681	-35.465	27.120	-190.437	-146.031	-98.646
261156.503	33.081	11.921	220.835	9.835	88.811	-191.331	-129.938	-93.281
261156.511	-5.960	-25.928	184.476	-30.994	51.260	-208.616	-162.721	-110.269
261156.519	10.133	-7.749	195.503	-16.987	62.883	-220.239	-182.688	-142.157
261156.527	7.451	-11.623	192.225	-12.517	59.903	-206.232	-160.336	-103.116
261156.535	-2.384	-16.391	186.861	-21.160	50.366	-212.491	-180.900	-117.421
261156.543	35.167	16.987	215.471	12.219	84.639	-196.695	-149.310	-108.480
261156.551	-2.384	-23.544	181.496	-25.928	48.280	-192.225	-164.509	-88.513
261156.559	34.571	13.411	215.471	8.643	85.533	-195.205	-154.376	-110.865
261156.567	22.948	3.874	203.550	1.788	74.506	-196.695	-152.588	-99.838
261156.575	6.258	-8.047	189.543	-11.921	53.942	-196.695	-159.144	-109.375
261156.583	51.558	33.379	226.796	30.696	97.454	-175.238	-124.574	-92.387
261156.591	4.768	-14.603	186.861	-18.775	52.154	-181.198	-154.376	-78.976
261156.599	26.524	7.153	211.000	-0.596	70.632	-183.880	-140.369	-104.606
261156.607	20.564	-2.980	198.781	-5.066	62.585	-174.344	-126.064	-74.506
261156.615	1.490	-21.160	180.304	-20.266	43.511	-184.178	-145.137	-95.665
261156.623	40.829	16.391	215.471	13.709	82.254	-177.324	-132.620	-91.791
261156.631	-2.682	-28.610	175.238	-28.610	42.021	-184.774	-170.469	-84.937
261156.639	39.339	18.179	211.000	16.391	78.976	-169.873	-133.216	-92.685
261156.647	28.908	9.239	200.272	7.749	68.247	-159.740	-115.633	-67.353
261156.655	19.968	0.000	200.570	-4.768	64.373	-173.748	-146.031	-84.639
261156.663	88.513	62.585	265.241	47.684	133.514	-159.442	-113.249	-81.956
261156.671	79.572	53.644	265.539	29.802	125.170	-175.238	-154.674	-74.208
261156.679	162.125	138.879	350.475	111.461	206.232	-167.191	-127.852	-81.360
261156.687	171.065	153.482	354.946	123.978	213.981	-163.019	-124.574	-74.506
261156.695	174.940	160.635	370.145	118.017	217.557	-183.582	-165.999	-104.010
261156.703	254.512	235.736	442.863	180.304	303.090	-163.317	-116.229	-84.937
261156.711	201.762	177.026	396.967	120.997	258.684	-173.450	-146.031	-78.678
261156.719	202.656	170.469	394.881	115.037	257.492	-168.085	-135.303	-98.646
261156.727	152.886	115.633	337.064	62.883	203.550	-158.548	-121.295	-73.016
261156.735	107.288	78.380	290.573	40.829	147.521	-175.834	-145.733	-95.069
261156.742	130.832	103.414	298.619	75.400	162.423	-159.740	-112.653	-84.341
261156.750	69.439	42.319	237.226	19.968	96.262	-168.681	-152.588	-81.956
261156.758	107.884	78.976	268.221	51.856	125.170	-152.886	-122.786	-82.850
261156.766	75.996	42.319	235.140	14.603	91.791	-140.369	-101.030	-54.240
261156.774	33.677	5.662	196.695	-10.133	47.386	-163.615	-135.303	-94.175
261156.782	77.188	47.386	230.372	30.398	86.427	-134.408	-81.062	-67.651
261156.790	33.975	5.662	187.159	-14.007	42.617	-142.753	-112.653	-51.558
261156.798	56.028	31.292	204.742	10.133	61.691	-149.012	-112.653	-75.400
261156.806	42.319	16.391	190.139	-5.364	45.598	-128.746	-87.321	-37.849
261156.814	15.795	-10.431	164.509	-29.206	14.901	-148.714	-118.613	-79.274
261156.822	54.836	29.504	194.013	16.689	50.366	-138.283	-89.407	-78.082
261156.830	6.557	-19.670	151.098	-30.398	2.086	-146.031	-121.891	-67.353
261156.838	32.485	3.874	172.257	-8.643	25.034	-140.667	-100.732	-85.831
261156.846	22.054	-5.960	160.635	-20.564	14.901	-122.786	-73.910	-51.260
261156.854	8.345	-14.603	148.416	-29.206	-3.278	-135.899	-97.752	-67.651
261156.862	35.763	9.239	161.529	0.298	19.372	-140.369	-93.579	-70.632
261156.870	-13.113	-38.743	119.209	-50.366	-32.485	-151.098	-121.295	-62.883
261156.878	13.411	-8.941	143.647	-25.928	-8.345	-162.423	-131.130	-98.944
261156.886	8.345	-16.689	137.091	-33.677	-16.689	-155.866	-119.209	-73.612
261156.894	-8.345	-33.677	121.593	-47.386	-38.743	-165.999	-131.428	-84.937
261156.902	27.418	5.066	152.290	-7.451	-5.662	-151.694	-106.394	-81.062
261156.910	-21.160	-42.617	106.394	-56.922	-54.538	-165.701	-129.342	-84.043
261156.918	15.795	-12.815	138.879	-26.226	-23.842	-156.462	-104.904	-95.367
261156.926	1.490	-28.312	122.786	-41.127	-42.915	-141.561	-105.500	-68.247
261156.934	-10.729	-37.253	107.288	-52.452	-59.307	-151.694	-109.673	-85.235
261156.942	35.465	9.835	152.290	-4.768	-15.199	-124.276	-68.545	-65.267
261156.950	-17.285	-39.935	101.030	-54.538	-70.035	-140.965	-111.759	-63.479
261156.958	4.470	-19.968	118.315	-30.100	-52.154	-134.706	-84.043	-84.341
261156.993	4.172	-25.928	120.699	-40.829	-53.346	-146.627	-105.202	-68.843
261157.001	-28.312	-56.326	88.513	-79.870	-88.215	-164.509	-141.263	-92.685
261157.009	5.662	-22.650	112.355	-42.915	-59.605	-137.985	-92.089	-81.062
261157.017	-35.465	-60.797	72.718	-78.380	-103.116	-144.541	-115.633	-68.247
261157.025	-8.047	-32.187	95.665	-54.240	-79.274	-137.389	-95.963	-76.592
261157.033	-15.497	-43.809	84.043	-60.499	-87.917	-123.382	-90.897	-49.770
261157.041	-35.167	-60.797	67.055	-83.447	-109.076	-142.455	-118.315	-80.466
261157.049	9.239	-13.709	105.500	-38.147	-69.439	-116.527	-63.181	-62.883
261157.057	-30.696	-55.730	64.373	-75.698	-113.547	-120.699	-89.407	-56.326
261157.065	-1.192	-26.822	89.407	-50.962	-84.043	-126.064	-86.725	-78.082
261157.073	-14.901	-41.425	75.102	-63.181	-97.454	-122.786	-87.023	-57.518
261157.081	-25.034	-49.472	69.141	-70.632	-113.249	-122.786	-95.069	-60.797
261157.089	10.133	-17.881	102.222	-37.551	-80.466	-110.269	-66.459	-52.750
261157.097	-17.881	-45.300	75.996	-63.777	-109.673	-106.096	-74.804	-35.167
261157.105	11.921	-16.093	98.348	-38.743	-81.956	-106.394	-74.804	-54.836
261157.113	-1.192	-33.081	83.745	-53.644	-94.771	-102.520	-72.122	-45.002
261157.121	-11.623	-43.809	73.016	-62.883	-110.269	-99.242	-65.267	-43.213
261157.129	18.775	-13.113	97.752	-35.465	-82.850	-94.771	-46.194	-44.107
261157.137	-35.763	-62.287	47.088	-84.937	-136.495	-118.017	-103.414	-49.472
261157.145	-0.298	-27.418	78.678	-55.134	-101.924	-108.778	-76.890	-63.777
261157.153	-17.583	-42.021	64.373	-70.333	-119.805	-104.904	-78.082	-49.770
261157.161	-20.266	-45.300	60.201	-70.632	-125.766	-106.692	-79.274	-54.538
261157.169	25.928	-2.980	99.838	-31.590	-81.360	-79.870	-30.696	-37.551
261157.177	-21.756	-48.578	57.220	-80.764	-129.342	-103.116	-79.274	-44.703
261157.185	4.470	-19.073	81.062	-52.750	-107.884	-111.759	-80.168	-71.824
261157.193	-12.815	-34.571	62.585	-66.459	-126.064	-99.838	-73.612	-46.790
261157.201	-14.305	-38.445	59.903	-65.565	-132.024	-94.771	-68.545	-43.511
261157.209	16.093	-11.921	86.427	-37.849	-103.712	-89.407	-34.869	-49.770
261157.200	-26.524	-53.644	45.002	-79.870	-143.349	-100.136	-75.400	-44.107
261157.208	16.689	-13.411	79.870	-42.617	-102.818	-84.341	-47.684	-43.213
261157.216	0.596	-33.975	61.691	-60.201	-122.488	-87.023	-54.240	-39.339
261157.224	-19.073	-47.684	45.598	-73.016	-144.839	-107.586	-75.400	-63.479
261157.232	25.034	-7.749	84.937	-31.292	-103.414	-77.486	-23.246	-36.955
261157.240	-24.438	-56.922	44.107	-82.552	-150.502	-76.294	-64.075	-14.603
261157.248	12.517	-16.093	70.930	-40.531	-121.295	-81.360	-51.260	-47.386
261157.256	0.298	-28.610	56.624	-56.624	-134.706	-90.599	-61.393	-45.598
261157.264	-19.073	-47.684	39.935	-77.188	-155.270	-103.414	-77.486	-66.459
261157.272	24.438	-4.470	82.552	-29.802	-111.461	-75.996	-37.849	-45.002
261157.280	-15.497	-46.194	43.213	-73.612	-153.780	-79.870	-61.989	-27.418
261157.288	21.458	-8.047	72.122	-35.167	-120.699	-81.062	-57.817	-42.021
261157.296	0.298	-28.610	54.240	-54.836	-137.687	-93.877	-70.333	-50.664
261157.304	2.384	-25.630	59.307	-47.386	-134.706	-87.023	-66.161	-51.856
261157.312	32.485	0.894	79.572	-17.285	-108.182	-83.148	-37.551	-46.492
261157.320	-19.073	-50.962	29.504	-64.373	-160.038	-104.606	-89.109	-51.260
261157.328	21.756	-11.921	67.055	-30.696	-123.084	-83.447	-64.075	-56.326
261157.336	13.411	-21.756	59.605	-39.339	-129.044	-63.181	-39.637	-27.716
261157.344	6.258	-22.948	52.452	-38.743	-135.303	-68.843	-50.068	-33.379
261157.352	39.935	8.941	80.466	-1.490	-104.308	-62.883	-21.458	-35.465
261157.360	22.948	-9.239	63.181	-14.603	-121.295	-44.703	-8.643	0.596
261157.368	55.730	22.650	90.301	11.921	-88.811	-34.571	-10.729	-14.603
261157.376	20.266	-11.027	57.220	-19.670	-120.699	-62.287	-52.750	-33.081
261157.384	17.583	-12.219	56.922	-16.987	-119.209	-67.949	-56.624	-39.935
261157.392	49.174	18.477	81.360	23.246	-88.215	-50.068	-11.027	-18.775
261157.400	12.815	-19.968	41.127	-11.921	-125.468	-49.174	-28.312	-11.027
261157.408	58.115	25.332	80.168	31.292	-79.870	-35.167	-3.576	-12.517
261157.416	45.598	11.325	71.824	27.716	-84.937	-31.888	-7.153	4.470
261157.422	29.206	-4.172	57.518	13.113	-99.838	-42.319	-25.034	-13.709
261157.430	74.506	39.637	95.367	57.518	-54.240	-22.650	4.172	2.086
261157.438	19.670	-11.623	44.703	8.643	-107.884	-48.876	-43.213	-13.113
261157.446	50.366	19.670	75.996	42.617	-73.612	-39.339	-16.987	-23.544
261157.454	43.809	11.623	68.545	40.531	-74.804	-19.670	6.258	10.729
261157.462	39.339	7.749	60.499	41.723	-80.466	-26.822	-9.537	-6.557
261157.470	80.466	45.896	92.685	86.427	-39.637	-5.364	25.630	12.517
261157.478	28.014	-6.557	45.002	35.763	-85.831	-22.352	-8.047	10.431
261157.486	49.472	18.775	60.797	60.797	-63.181	-28.610	-2.980	-11.325
261157.494	41.127	7.451	48.578	52.154	-69.737	-23.246	0.894	-6.557
261157.502	30.100	-3.576	41.723	39.041	-76.890	-40.233	-28.014	-23.246
261157.510	64.671	29.504	71.228	80.168	-37.253	-21.160	3.874	-6.258
261157.518	25.630	-7.749	35.465	48.280	-76.294	-18.179	-7.153	9.835
261157.526	62.287	28.312	68.545	86.129	-39.637	-13.411	17.583	-13.411
261157.534	45.300	13.113	47.982	70.035	-50.664	-24.140	-5.364	-8.345
261157.542	43.213	9.239	47.684	65.565	-51.260	-29.504	-16.391	-16.093
261157.550	70.035	36.061	73.910	91.493	-22.054	-3.576	15.795	7.749
261157.558	13.113	-17.285	17.285	48.280	-75.996	-28.610	-30.994	-13.411
261157.566	56.028	23.544	56.624	89.109	-34.273	-18.775	-3.576	-20.862
261157.574	39.637	0.894	41.425	69.737	-44.703	-11.325	10.133	1.192
261157.582	35.167	-0.298	38.147	67.949	-44.703	-10.729	5.662	-6.855
261157.590	78.380	42.915	78.380	112.653	-0.596	15.199	42.915	20.266
261157.598	43.213	8.941	43.809	80.168	-31.888	1.192	3.874	19.670
261157.606	72.718	37.253	70.035	111.461	-1.192	-3.278	8.941	-21.458
261157.614	58.711	18.477	57.817	92.983	-9.537	4.172	13.709	8.047
261157.622	47.088	9.835	49.472	88.811	-19.670	-1.192	3.576	2.980
261157.630	87.321	49.174	89.705	129.342	22.650	19.968	51.558	15.795
261157.638	49.174	11.921	54.836	91.493	-8.941	12.219	22.948	16.391
261157.672	89.407	53.346	87.917	135.899	30.398	14.901	30.696	3.278
261157.680	70.930	33.677	68.843	118.911	15.199	16.391	32.783	21.756
261157.688	61.691	26.226	62.883	109.375	7.153	10.729	15.497	6.258
261157.696	111.163	74.804	109.375	160.635	57.220	41.425	59.903	30.100
261157.704	67.353	32.485	68.545	121.295	18.179	33.379	32.783	39.339
261157.712	91.195	53.942	93.281	141.859	43.213	44.703	58.115	24.140
261157.720	61.989	23.842	60.797	119.209	16.391	33.677	41.723	29.802
261157.728	76.592	46.790	70.333	145.435	26.226	26.524	33.081	16.391
261157.736	100.732	69.141	93.579	169.575	53.644	39.041	62.585	22.352
261157.744	54.538	23.842	47.982	127.852	7.749	22.650	24.438	29.206
261157.752	95.963	62.287	84.639	162.423	48.876	36.061	58.711	22.054
261157.760	76.592	40.233	70.333	144.243	33.379	38.147	47.982	31.590
261157.768	69.439	34.273	67.353	137.091	29.504	29.206	28.312	16.689
261157.776	102.520	64.969	95.069	163.019	62.287	49.472	67.949	31.292
261157.784	51.558	18.775	43.809	123.382	10.729	29.802	22.054	23.842
261157.792	100.434	64.969	88.513	170.171	60.499	53.048	73.612	23.246
261157.800	74.208	36.657	65.267	142.455	36.955	57.220	63.181	46.194
261157.808	59.009	22.054	50.962	123.084	24.438	50.366	49.770	26.226
261157.816	86.725	46.194	75.400	149.310	56.922	58.115	80.168	26.822
261157.824	31.292	-7.451	24.140	96.858	4.172	35.167	33.379	20.564
261157.832	69.737	33.379	58.711	140.071	41.127	45.896	63.479	19.073
261157.840	32.187	-6.258	19.968	98.646	6.258	31.292	31.888	24.140
261157.848	44.107	8.941	36.359	112.057	18.775	43.213	48.578	26.822
261157.856	76.890	41.425	64.075	143.051	51.856	55.134	78.976	30.398
261157.864	18.179	-16.689	9.537	85.831	-3.278	32.187	27.716	19.670
261157.872	70.632	35.465	56.922	140.369	49.472	54.538	64.075	20.564
261157.880	63.181	26.822	46.492	131.428	44.703	63.479	63.181	45.598
261157.888	59.009	25.928	47.088	131.726	38.743	54.836	62.585	23.842
261157.861	100.136	63.181	76.592	168.085	78.380	79.572	91.195	53.942
261157.869	71.526	30.994	54.836	140.965	55.432	80.764	70.333	65.267
261157.877	106.096	66.459	87.023	173.748	89.109	81.062	97.454	45.002
261157.885	86.129	47.386	66.757	153.780	73.910	86.725	87.023	67.353
261157.893	71.824	30.994	56.028	148.118	64.373	57.518	38.445	16.391
261157.901	95.069	54.538	72.122	168.383	89.705	74.506	80.764	38.743
261157.909	57.817	19.968	39.041	138.283	54.836	73.314	64.671	47.386
261157.917	106.096	66.161	83.447	188.947	101.328	89.705	106.096	42.617
261157.925	97.752	54.836	74.804	177.920	96.858	106.692	115.335	75.698
261157.933	114.739	74.804	98.050	201.762	115.931	102.818	106.990	68.247
261157.941	141.859	99.242	118.017	226.796	146.925	116.527	123.382	71.824
261157.949	104.308	62.287	89.407	192.821	114.143	101.626	82.552	66.757
261157.957	137.985	96.858	119.209	227.690	146.925	88.513	83.447	37.253
261157.965	121.593	81.062	98.646	214.279	133.216	109.076	101.626	77.784
261157.973	145.733	105.202	129.342	238.121	160.635	109.076	104.904	74.804
261157.981	165.105	117.421	143.051	250.041	182.688	108.182	115.335	71.824
261157.989	111.759	64.969	95.665	202.358	133.216	100.434	91.195	78.678
261157.997	141.561	97.454	119.209	234.246	159.442	98.646	95.963	53.644
261158.005	116.825	71.228	91.791	211.895	138.879	104.010	95.069	73.016
261158.013	113.249	67.055	91.195	208.318	137.389	88.215	78.380	48.876
261158.021	137.985	90.003	108.480	230.968	160.635	107.884	113.845	70.333
261158.029	101.626	58.413	78.082	203.550	129.640	110.865	97.454	84.639
261158.037	164.807	120.699	135.601	263.453	195.205	134.110	139.475	84.937
261158.045	117.719	73.612	85.533	216.365	150.502	112.057	101.626	69.737
261158.053	123.680	83.447	94.771	224.710	160.933	107.586	98.944	55.730
261158.061	150.502	107.288	114.739	249.147	189.245	109.375	110.269	61.989
261158.069	111.163	69.141	84.937	211.298	154.972	109.076	91.195	71.824
261158.077	155.866	113.249	123.978	254.810	196.993	119.507	124.574	66.459
261158.098	145.733	97.752	108.480	242.591	187.159	127.554	117.123	93.579
261158.106	159.144	114.441	127.852	262.260	203.848	144.839	131.130	98.348
261158.114	162.721	117.123	123.084	264.347	208.318	137.985	135.899	80.466
261158.122	107.884	63.777	72.718	212.491	155.270	114.143	110.567	62.883
261158.130	143.051	91.195	104.606	238.419	190.735	120.103	122.190	58.413
261158.138	114.441	60.797	75.698	210.702	166.595	123.978	108.778	87.619
261158.146	126.660	78.380	91.791	227.988	175.834	122.786	109.673	76.294
261158.154	168.681	120.401	126.362	265.539	216.365	150.800	146.627	97.454
261158.162	105.798	59.605	66.757	210.404	151.992	130.534	119.209	78.380
261158.170	139.177	92.983	91.195	242.591	184.178	137.091	145.733	70.930
261158.178	94.473	47.386	42.021	197.291	140.369	114.143	105.202	70.333
261158.186	72.122	26.822	26.524	172.853	119.507	87.321	68.545	28.014
261158.194	106.096	59.903	53.346	199.974	148.714	106.692	102.520	49.472
261158.202	73.612	28.014	23.544	166.595	114.441	98.944	85.235	50.664
261158.210	104.606	60.797	48.876	198.483	142.157	104.606	118.017	46.492
261158.218	51.856	6.258	-0.596	141.859	90.897	86.725	76.592	46.194
261158.226	63.777	22.054	16.987	151.098	102.222	92.387	71.526	44.703
261158.234	101.328	56.922	41.425	185.370	135.303	122.488	127.852	73.910
261158.242	62.883	21.458	3.874	156.164	97.156	108.778	97.156	73.612
261158.250	103.712	59.009	37.849	182.986	134.408	96.560	83.148	47.684
261158.258	91.493	46.194	26.524	169.873	122.488	109.076	89.407	73.016
261158.266	90.897	49.770	28.908	178.218	119.507	111.759	91.195	64.075
261158.274	115.037	71.228	43.809	195.205	143.945	132.024	130.534	87.917
261158.282	83.447	41.127	16.093	162.423	111.163	124.276	103.116	87.321
261158.290	107.884	62.287	37.551	182.390	135.005	115.633	110.567	56.922
261158.298	81.062	33.677	3.576	154.972	110.865	120.103	103.712	83.447
261158.306	83.148	44.703	7.749	162.721	114.143	114.441	85.533	76.890
261158.314	109.971	68.545	32.187	183.880	138.879	126.362	119.805	88.811
261158.305	53.644	10.133	-23.544	124.574	81.956	92.387	57.817	51.558
261158.313	95.963	54.240	11.027	166.595	120.997	101.328	86.725	38.743
261158.321	74.208	30.994	-12.517	143.945	100.434	116.825	98.944	84.043
261158.329	68.247	24.438	-11.623	141.859	94.771	106.394	90.003	65.863
261158.337	85.533	36.657	-5.662	154.376	112.057	110.567	110.269	65.863
261158.345	23.246	-25.332	-62.287	87.321	55.134	78.380	44.107	42.617
261158.353	71.824	24.140	-19.372	134.110	97.156	91.791	80.764	40.531
261158.361	51.856	4.172	-44.405	114.441	79.572	98.944	80.466	62.883
261158.369	43.809	0.596	-52.154	109.673	65.863	87.619	60.797	40.829
261158.377	57.220	13.411	-45.598	128.448	77.486	107.586	99.540	60.499
261158.385	12.517	-30.398	-84.341	83.745	36.955	95.665	64.969	63.479
261158.393	63.181	22.650	-38.743	130.832	84.043	120.699	114.739	64.671
261158.401	35.167	-6.557	-66.161	102.520	62.883	124.872	99.838	92.685
261158.409	24.438	-16.689	-75.102	94.771	50.068	100.136	64.671	56.922
261158.417	22.948	-18.775	-85.235	91.791	43.809	87.321	70.632	36.657
261158.425	-16.987	-59.307	-118.315	47.386	6.258	88.215	52.154	51.558
261158.433	3.874	-42.617	-100.434	62.585	30.994	90.897	76.592	42.021
261158.441	-8.047	-50.962	-118.613	61.989	12.219	90.897	73.314	56.326
261158.449	15.497	-21.160	-95.069	90.003	30.696	90.301	71.824	45.300
261158.457	56.028	14.007	-65.863	121.891	70.930	118.613	119.209	79.274
261158.465	-0.596	-41.425	-117.123	70.632	14.305	89.109	56.028	48.578
261158.473	33.975	-5.960	-87.023	101.328	46.492	89.705	78.082	27.716
261158.481	14.603	-27.120	-106.394	79.572	31.292	96.560	79.572	61.691
261158.489	17.285	-19.372	-103.712	83.447	32.485	97.156	88.215	50.962
261158.497	35.763	-1.490	-90.003	97.156	51.260	107.288	108.182	61.393
261158.505	-26.226	-65.565	-147.820	37.551	-7.451	78.678	37.253	43.511
261158.513	24.736	-15.795	-106.394	84.341	38.445	104.606	95.367	36.657
261158.521	-8.345	-50.962	-140.369	47.386	4.470	93.579	67.949	50.366
261158.543	-11.027	-50.962	-140.667	47.088	1.490	70.333	42.915	17.285
261158.551	19.073	-24.438	-121.295	70.035	31.888	94.771	85.235	40.531
261158.559	-25.034	-67.651	-162.721	28.908	-8.941	100.732	70.632	57.518
261158.567	20.266	-25.630	-120.103	71.228	33.975	109.375	99.540	48.876
261158.575	-9.537	-53.048	-148.714	44.405	5.662	104.010	77.784	65.267
261158.583	-17.583	-55.730	-153.482	39.041	-6.258	86.129	58.115	33.379
261158.591	10.133	-31.590	-134.110	58.115	19.372	101.030	95.367	40.531
261158.599	-24.140	-68.247	-164.211	27.716	-10.133	103.414	81.062	57.220
261158.607	5.066	-37.551	-139.773	59.903	17.285	102.818	96.262	35.167
261158.615	-32.783	-70.632	-175.536	19.372	-17.881	103.414	71.824	56.028
261158.623	-22.054	-59.307	-164.211	31.888	-7.749	104.606	67.055	49.472
261158.631	9.537	-37.253	-140.965	52.750	25.928	121.593	108.778	74.506
261158.639	-39.637	-81.360	-185.966	11.921	-25.034	105.798	67.055	62.585
261158.647	1.490	-40.829	-152.886	50.962	9.537	112.951	94.473	43.511
261158.655	-20.266	-60.797	-173.450	25.332	-8.047	117.421	96.560	72.122
261158.663	-25.928	-59.903	-171.065	22.650	-13.113	100.434	73.910	39.339
261158.671	-6.855	-45.300	-159.144	39.041	5.066	111.163	102.520	51.856
261158.679	-56.922	-92.387	-202.656	-10.133	-45.300	100.136	62.585	56.326
261158.687	-9.239	-43.213	-163.913	35.465	-4.172	115.335	98.646	50.366
261158.695	-51.260	-88.513	-203.848	-5.960	-41.127	105.500	70.930	51.856
261158.703	-45.896	-80.764	-193.715	-0.894	-35.167	101.924	64.671	41.723
261158.711	-19.372	-58.711	-175.536	16.391	-10.729	127.852	106.096	69.439
261158.719	-82.552	-116.527	-233.352	-42.319	-75.102	100.434	49.770	43.511
261158.727	-37.253	-67.651	-191.629	6.855	-31.292	106.990	78.380	33.677
261158.735	-53.942	-89.109	-208.020	-14.603	-45.300	116.825	84.341	67.353
261158.743	-55.730	-89.705	-207.424	-13.709	-47.684	118.315	87.023	57.518
261158.751	-36.359	-70.333	-193.119	0.298	-27.716	132.024	122.488	73.612
261158.759	-67.949	-98.646	-216.365	-30.100	-59.009	121.295	64.671	75.996
261158.764	2.384	-29.504	-154.674	35.465	7.749	136.495	105.202	63.479
261158.772	-26.524	-60.201	-182.092	1.490	-15.497	132.322	93.877	76.294
261158.780	-37.849	-67.055	-191.629	-2.980	-29.206	124.276	86.725	53.644
261158.788	-10.431	-45.002	-171.661	19.670	-3.278	129.640	109.375	63.777
261158.796	-40.233	-72.420	-195.503	-14.305	-30.696	131.726	85.831	82.850
261158.804	9.239	-20.266	-147.820	31.888	15.497	142.753	118.315	76.890
261158.812	-27.120	-59.605	-180.900	-0.298	-15.795	125.170	81.956	71.228
261158.820	-22.054	-50.068	-174.344	12.219	-13.113	129.342	84.043	64.671
261158.828	1.192	-30.398	-158.250	26.226	7.153	146.031	110.567	81.658
261158.836	-39.637	-68.545	-192.821	-14.603	-33.081	132.322	78.082	76.592
261158.844	-0.596	-28.908	-159.442	23.246	3.874	138.879	108.480	64.969
261158.852	-34.273	-64.373	-191.927	-14.305	-27.716	133.216	95.069	78.678
261158.860	-22.054	-52.750	-177.026	1.788	-14.305	130.534	84.937	57.817
261158.868	10.431	-20.862	-151.098	28.014	19.968	154.674	123.978	84.639
261158.876	-34.571	-62.585	-187.755	-13.113	-23.246	136.197	92.685	75.400
261158.884	0.000	-27.418	-160.635	20.862	7.451	134.110	113.547	59.307
261158.892	-32.783	-63.479	-191.629	-21.756	-19.968	130.534	95.367	84.937
261158.900	-47.088	-70.035	-203.550	-27.716	-36.955	108.480	63.479	40.829
261158.908	-33.379	-57.518	-194.013	-12.219	-25.034	113.547	78.678	49.472
261158.916	-80.466	-103.116	-232.756	-57.518	-70.035	95.367	45.300	46.790
261158.924	-36.359	-59.009	-192.523	-14.603	-30.100	111.759	86.427	41.425
261158.932	-60.499	-80.466	-214.875	-42.617	-50.366	110.269	76.592	54.538
261158.940	-49.174	-70.333	-199.676	-34.571	-38.743	114.441	86.427	43.809
261158.948	-37.551	-59.605	-195.205	-22.352	-28.014	112.057	83.745	50.366
261158.956	-89.407	-110.567	-243.187	-75.698	-77.784	86.129	26.226	31.292
261158.964	-63.479	-84.341	-219.345	-50.962	-55.134	83.745	42.617	11.325
261158.972	-83.745	-104.904	-236.332	-73.016	-72.718	92.685	43.511	46.194
261158.980	-73.910	-92.983	-220.537	-64.075	-64.075	90.599	44.703	32.783
261158.987	-29.206	-50.068	-180.006	-22.054	-19.968	120.401	102.520	58.413
261158.995	-83.447	-101.626	-229.478	-72.420	-71.228	92.983	45.002	40.531
261159.003	-38.147	-57.817	-188.649	-32.187	-29.206	99.242	68.843	25.034
261159.011	-67.949	-84.639	-211.895	-56.624	-56.028	103.712	53.942	50.068
261159.019	-68.843	-86.427	-209.808	-58.413	-56.624	96.858	51.260	34.571
261159.027	-54.538	-77.784	-204.146	-52.452	-43.511	110.567	88.513	51.856
261159.035	-95.367	-114.739	-232.458	-91.493	-78.678	72.718	27.418	29.504
261159.043	-50.068	-70.035	-190.139	-54.836	-33.677	86.427	63.479	19.968
261159.051	-78.976	-97.752	-217.855	-83.148	-60.797	84.043	42.021	42.617
261159.059	-79.572	-95.069	-218.451	-78.976	-66.459	67.949	21.160	10.133
261159.067	-60.797	-78.082	-200.868	-62.883	-45.300	80.168	51.558	25.332
261159.075	-103.712	-122.786	-234.842	-109.375	-78.678	62.883	17.285	20.564
261159.083	-36.657	-58.413	-163.615	-51.260	-9.239	76.592	55.432	23.544
261159.091	-41.127	-62.287	-160.635	-63.777	-8.941	70.632	42.021	32.187
261159.099	-14.305	-31.590	-124.574	-40.829	19.670	59.903	14.007	7.749
261159.107	40.829	28.908	-76.294	15.199	70.333	72.420	52.750	17.583
261159.115	34.869	26.524	-72.718	8.047	64.373	69.737	38.743	21.458
261159.123	93.877	81.658	-12.219	56.326	126.362	75.102	48.578	5.960
261159.131	57.518	49.174	-48.280	18.477	93.579	61.393	19.968	13.113
261159.139	47.088	41.425	-48.876	12.219	85.533	49.770	8.047	-9.537
261159.147	56.922	53.048	-47.088	27.120	86.725	65.565	43.511	14.901
261159.155	-3.278	-4.470	-105.202	-27.716	24.736	41.425	-11.027	3.874
261159.163	16.391	9.537	-93.579	-10.133	38.445	56.922	31.292	-1.490
261159.171	-30.398	-43.511	-147.820	-63.777	-7.451	59.009	19.968	24.140
261159.179	-45.896	-57.817	-159.442	-75.698	-24.438	43.511	-0.298	-9.835
261159.187	-36.359	-51.558	-155.866	-69.141	-19.968	46.492	27.120	2.384
261159.195	-85.235	-96.858	-198.781	-110.865	-66.161	34.869	-2.086	7.749
261159.203	-51.260	-62.585	-168.383	-75.102	-36.657	43.511	14.305	-4.470
261159.207	-85.831	-94.175	-199.974	-109.076	-72.718	47.386	8.941	14.305
261159.215	-78.380	-88.215	-189.543	-103.414	-64.671	36.061	2.980	-5.662
261159.223	-62.883	-73.016	-180.006	-88.513	-49.770	46.790	29.206	3.576
261159.231	-120.699	-129.938	-227.988	-146.031	-108.182	19.372	-19.372	-18.477
261159.239	-67.949	-78.678	-182.092	-90.003	-58.413	44.107	30.994	-9.239
261159.247	-96.262	-105.798	-208.616	-118.911	-84.937	45.300	10.431	19.670
261159.255	-95.963	-99.242	-204.444	-113.547	-86.129	33.379	-17.285	-15.497
261159.263	-77.188	-85.533	-190.139	-99.540	-68.247	47.386	23.246	-4.768
261159.271	-121.295	-126.064	-223.219	-141.859	-108.778	34.869	-0.298	-6.557
261159.279	-74.804	-75.400	-179.708	-99.838	-64.969	47.684	33.975	-1.192
261159.287	-102.818	-107.586	-210.106	-126.660	-92.089	39.041	21.458	9.537
261159.295	-105.798	-109.673	-209.808	-125.170	-97.156	14.901	-17.881	-28.312
261159.303	-92.387	-98.050	-200.868	-115.335	-81.956	24.438	16.391	-16.093
261159.311	-131.726	-134.408	-236.928	-153.482	-118.911	4.768	-19.073	-19.073
261159.319	-87.917	-92.685	-197.291	-112.951	-79.870	17.583	5.662	-28.312
261159.327	-118.017	-123.382	-227.690	-142.455	-108.480	18.775	-14.901	-5.960
261159.335	-97.454	-101.626	-199.080	-118.613	-87.321	11.921	-18.477	-20.862
261159.343	-80.168	-84.341	-187.457	-100.434	-71.526	28.014	20.862	-10.431
261159.351	-116.229	-117.719	-215.769	-138.581	-105.798	21.458	-6.855	-7.153
261159.359	-73.314	-78.380	-177.920	-98.348	-64.373	22.650	18.775	-20.564
261159.367	-106.990	-113.547	-210.404	-129.640	-95.963	23.544	-0.894	-2.384
261159.375	-102.222	-105.500	-197.291	-125.766	-91.195	19.968	-4.172	-17.583
261159.383	-87.023	-88.215	-184.774	-113.845	-75.698	33.677	21.756	13.709
261159.391	-111.461	-113.249	-204.742	-126.660	-102.818	8.345	-16.689	-12.219
261159.399	-73.016	-78.380	-171.065	-97.752	-65.565	5.960	-7.749	-31.888
261159.407	-118.613	-121.891	-208.318	-140.071	-107.884	-0.894	-28.014	-20.266
261159.415	-102.818	-99.838	-191.033	-118.911	-94.473	6.855	-11.027	-18.775
261159.423	-67.353	-71.228	-160.933	-96.262	-56.922	20.266	9.537	6.855
261159.430	-113.249	-113.249	-194.907	-139.177	-101.924	2.980	-28.610	-25.630
261159.438	-87.321	-86.427	-179.708	-111.759	-78.678	-1.490	-8.047	-40.531
261159.446	-124.574	-124.872	-212.789	-146.031	-112.653	-8.345	-31.888	-19.670
261159.454	-103.116	-101.924	-185.370	-118.315	-93.877	-3.874	-31.888	-30.398
261159.462	-105.202	-112.057	-194.609	-129.342	-96.560	-5.066	-23.246	-24.736
261159.470	-131.428	-136.495	-208.616	-150.800	-124.276	-20.862	-48.578	-36.657
261159.478	-84.937	-92.685	-171.959	-109.673	-80.466	-11.325	-11.027	-36.657
261159.486	-129.342	-132.322	-210.106	-155.270	-123.084	-33.081	-59.903	-42.915
261159.494	-112.057	-111.759	-186.861	-131.428	-108.778	-35.763	-56.922	-62.287
261159.502	-99.242	-103.712	-180.900	-122.488	-94.771	-16.093	-19.372	-32.783
261159.510	-128.448	-127.256	-197.589	-145.137	-121.891	-28.312	-42.617	-52.154
261159.518	-91.195	-92.685	-164.807	-115.633	-86.129	-11.623	-17.285	-38.445
261159.526	-116.825	-122.190	-184.774	-145.733	-107.586	-3.576	-27.418	-13.113
261159.534	-103.116	-106.096	-165.105	-127.554	-91.493	-12.815	-27.120	-30.100
261159.542	-97.752	-101.924	-165.701	-122.786	-88.513	-22.650	-36.955	-37.849
261159.550	-120.997	-121.593	-182.986	-142.753	-111.759	-22.054	-48.280	-33.677
261159.558	-80.466	-80.466	-143.349	-103.414	-71.824	-2.086	-4.768	-30.398
261159.566	-120.997	-119.209	-178.516	-141.263	-110.269	-13.113	-38.445	-25.034
261159.574	-107.884	-108.480	-165.105	-128.448	-99.838	-24.736	-49.472	-49.472
261159.582	-85.831	-89.705	-149.310	-105.500	-75.102	-8.941	-16.093	-26.226
261159.590	-114.739	-114.143	-159.442	-129.938	-97.156	-11.623	-38.743	-21.458
261159.598	-76.592	-79.870	-121.891	-95.069	-58.413	-6.557	-16.093	-40.829
261159.606	-111.759	-112.951	-157.356	-127.256	-94.175	-14.007	-39.935	-26.524
261159.614	-92.983	-88.513	-131.726	-104.904	-73.612	-8.941	-37.551	-30.696
261159.622	-88.513	-87.917	-132.620	-103.712	-69.737	-11.027	-31.590	-37.253
261159.630	-126.064	-123.084	-164.211	-133.812	-105.798	-30.398	-62.585	-52.154
261159.638	-75.400	-77.188	-120.103	-90.003	-56.922	-15.497	-25.928	-48.280
261159.646	-100.732	-101.328	-140.667	-119.209	-82.850	-17.583	-35.763	-32.783
261159.666	-81.360	-80.764	-116.229	-98.944	-65.565	-19.968	-35.167	-48.876
261159.674	-61.393	-62.883	-101.030	-77.486	-44.703	-1.192	-10.431	-17.285
261159.682	-98.348	-95.069	-129.640	-108.778	-77.784	-16.689	-50.962	-23.246
261159.690	-52.750	-52.452	-86.427	-67.651	-36.359	-12.815	-25.928	-39.935
261159.698	-82.552	-81.956	-113.249	-97.752	-61.691	-14.007	-31.590	-27.120
261159.706	-80.764	-78.380	-109.971	-94.771	-62.287	-28.312	-47.386	-53.346
261159.714	-64.075	-66.757	-99.838	-81.658	-46.194	-19.968	-32.783	-33.379
261159.722	-96.560	-93.579	-118.911	-109.375	-77.188	-32.783	-61.095	-41.425
261159.730	-47.684	-44.107	-75.996	-61.989	-30.994	-18.179	-23.246	-40.829
261159.738	-72.718	-73.016	-102.520	-84.639	-54.240	-20.266	-29.802	-26.524
261159.746	-61.989	-60.499	-88.811	-70.632	-44.703	-35.167	-49.174	-61.095
261159.754	-45.300	-45.896	-74.208	-55.730	-26.524	-19.968	-30.994	-40.233
261159.762	-89.407	-87.619	-104.904	-97.156	-69.737	-39.637	-75.400	-50.366
261159.770	-52.452	-49.770	-73.910	-63.777	-36.955	-30.994	-37.253	-65.863
261159.778	-75.102	-70.035	-98.646	-84.639	-57.817	-28.610	-47.386	-41.127
261159.786	-52.750	-49.174	-77.188	-61.691	-35.763	-27.418	-37.849	-46.492
261159.794	-49.770	-47.088	-76.890	-61.691	-33.975	-15.795	-15.497	-32.783
261159.802	-82.254	-78.082	-95.367	-89.109	-63.181	-32.485	-61.393	-47.088
261159.810	-29.504	-31.888	-47.088	-41.127	-11.027	-26.822	-36.061	-47.684
261159.818	-73.016	-71.228	-87.917	-84.043	-54.836	-45.598	-68.843	-56.028
261159.826	-70.333	-62.883	-78.678	-75.996	-53.048	-63.479	-88.215	-87.023
261159.834	-43.809	-38.445	-56.624	-51.260	-28.014	-42.617	-45.598	-57.220
261159.842	-66.459	-60.797	-71.526	-73.612	-48.876	-36.955	-56.028	-46.790
261159.850	-25.034	-21.458	-33.379	-36.359	-10.729	-24.140	-33.975	-43.213
261159.858	-63.479	-61.989	-69.737	-70.333	-45.896	-33.081	-45.896	-38.147
261159.866	-57.518	-55.432	-63.479	-65.565	-40.233	-43.213	-61.393	-64.075
261159.874	-33.677	-34.273	-46.492	-45.598	-15.795	-20.564	-24.140	-40.233
261159.882	-75.400	-70.930	-79.870	-82.850	-55.432	-45.896	-71.526	-57.220
261159.888	-40.233	-37.253	-42.915	-52.452	-21.458	-36.657	-50.962	-51.856
261159.896	-63.181	-61.393	-60.797	-67.949	-40.829	-36.061	-52.154	-32.783
261159.904	-36.359	-29.504	-39.935	-35.763	-19.670	-37.849	-49.472	-53.346
261159.912	-16.987	-11.027	-24.736	-22.054	-2.384	-38.147	-35.167	-50.962
261159.920	-55.134	-51.260	-54.240	-58.115	-40.531	-58.115	-79.274	-67.949
261159.928	-5.960	-6.557	-10.431	-10.431	7.451	-31.888	-25.034	-49.770
261159.936	-52.154	-48.280	-45.896	-52.154	-31.590	-46.194	-59.605	-49.472
261159.944	-42.915	-38.147	-28.908	-42.915	-25.332	-53.942	-68.545	-68.843
261159.952	-23.246	-23.246	-16.987	-27.120	-10.133	-36.359	-32.485	-43.809
261159.960	-56.624	-51.260	-44.107	-52.452	-42.617	-43.809	-55.432	-44.405
261159.968	-16.689	-14.305	-6.557	-16.093	-0.894	-38.445	-37.253	-52.750
261159.976	-56.028	-52.750	-42.021	-54.240	-34.869	-49.174	-63.181	-49.770
261159.984	-34.869	-29.504	-18.775	-29.802	-14.603	-56.624	-68.843	-66.161
261159.992	-17.583	-15.795	-14.603	-19.670	-1.192	-29.802	-31.888	-34.571
261160.000	-57.518	-55.730	-45.896	-48.876	-36.061	-42.021	-68.843	-47.088
261160.008	-15.199	-14.305	-5.364	-9.835	4.470	-34.273	-38.743	-56.028
261160.016	-38.743	-39.935	-23.544	-34.273	-14.007	-34.273	-51.260	-39.041
261160.024	-11.325	-12.815	12.219	-12.815	18.179	-33.677	-46.492	-52.750
261160.032	40.829	37.253	69.141	29.206	76.294	-16.689	-18.477	-25.332
261160.040	60.797	66.459	98.348	57.518	93.877	-20.266	-37.551	-22.054
261160.048	133.216	143.051	170.767	128.746	166.595	-16.689	-29.802	-33.677
261160.056	149.310	158.846	190.437	139.475	177.920	-16.391	-44.405	-15.497
261160.064	201.762	211.000	249.743	188.351	232.458	-19.372	-29.504	-32.485
261160.072	234.246	244.081	275.970	218.153	264.347	6.258	16.987	-0.298
261160.080	207.722	224.113	255.704	206.232	238.419	-11.027	-24.140	-16.093
261160.088	239.611	253.320	284.016	227.094	273.585	-11.325	-8.941	-35.465
261160.096	182.092	191.629	228.584	168.979	219.941	-9.835	-22.352	-13.411
261160.104	164.211	172.853	207.424	160.933	198.185	-22.054	-30.100	-39.339
261160.108	137.687	142.455	172.555	137.687	167.489	-15.497	-22.054	-25.332
261160.116	77.486	83.148	115.037	85.235	106.096	-29.504	-56.624	-35.763
261160.124	94.771	98.348	125.468	99.838	122.488	-11.623	-6.855	-32.485
261160.132	41.723	42.617	78.082	48.280	72.420	-19.372	-32.485	-19.968
261160.140	46.492	54.538	84.043	64.075	73.910	-20.564	-31.888	-39.339
261160.148	62.883	66.161	93.877	79.274	87.023	12.517	12.219	6.258
261160.156	17.583	18.775	54.836	32.783	39.935	-14.603	-29.504	-16.391
261160.164	46.790	48.280	75.102	59.009	65.863	-13.113	-8.047	-36.359
261160.172	6.258	6.258	35.763	22.948	30.100	-23.842	-51.260	-28.014
261160.180	22.352	23.544	50.366	37.253	46.492	-14.305	-21.756	-28.014
261160.188	25.928	22.650	47.684	33.081	50.068	-11.325	-13.113	-19.372
261160.196	-5.662	-5.960	27.716	7.153	19.670	-17.881	-36.657	-23.842
261160.204	39.935	37.253	68.247	48.578	65.267	5.662	6.855	-11.325
261160.212	-8.047	-13.411	17.881	-0.298	16.093	-19.670	-36.061	-28.908
261160.220	8.047	5.662	35.167	22.352	26.226	-20.862	-27.120	-45.598
261160.228	33.975	29.504	57.220	49.174	56.326	9.239	6.557	-3.278
261160.236	-3.576	-4.172	29.802	14.007	22.948	-13.411	-43.511	-19.073
261160.244	29.802	29.802	56.028	39.339	55.134	-14.007	-13.113	-34.571
261160.252	-3.874	-5.364	23.842	8.643	22.948	-14.901	-22.650	-8.047
261160.260	13.709	13.411	39.041	31.888	37.253	-17.881	-23.842	-27.418
261160.268	23.842	21.458	45.002	38.445	47.684	-14.901	-4.470	-16.987
261160.276	-15.497	-15.497	14.603	4.470	10.133	-28.312	-49.770	-23.246
261160.284	24.736	25.332	53.346	43.213	50.366	-15.199	-17.881	-18.477
261160.292	-0.298	-0.298	30.994	19.670	23.246	-4.172	-9.537	10.431
261160.300	5.960	7.451	38.445	29.206	25.332	-14.305	-27.418	-25.630
261160.308	15.497	16.689	41.425	30.100	36.061	-9.239	-9.537	-19.372
261160.316	-25.928	-24.438	5.066	-8.345	-1.490	-27.418	-42.617	-28.312
261160.324	15.795	14.007	45.300	31.590	36.955	-18.179	-20.862	-26.822
261160.328	-14.603	-14.901	17.881	1.490	8.643	-22.352	-38.147	-7.153
261160.336	4.172	5.364	39.041	20.564	24.140	-18.179	-28.312	-21.756
261160.344	16.689	13.411	46.492	28.610	34.571	-7.153	2.086	-2.086
261160.352	-19.968	-21.458	16.093	-3.874	-1.788	-32.187	-57.518	-27.120
261160.360	24.140	22.352	54.538	34.571	43.213	-16.689	-21.756	-30.398
261160.368	-13.709	-19.968	18.477	-7.451	7.451	-18.179	-42.617	-6.557
261160.376	4.768	-0.894	38.743	14.603	23.842	-18.179	-34.273	-18.179
261160.384	9.537	6.557	38.445	22.650	28.014	-10.431	-16.391	-9.537
261160.392	-29.802	-29.206	7.153	-18.775	-7.153	-25.034	-49.472	-15.199
261160.400	4.470	1.788	33.081	12.517	22.650	-24.736	-40.233	-33.975
261160.408	-24.736	-30.398	2.384	-14.901	-10.729	-24.736	-43.809	-9.537
261160.416	1.192	0.894	31.292	7.749	14.305	-22.650	-28.014	-19.372
261160.424	8.941	4.172	33.975	11.027	24.438	-22.948	-21.756	-16.689
261160.432	-29.206	-29.802	3.278	-22.948	-11.027	-36.657	-62.287	-20.266
261160.440	11.623	9.537	34.869	14.603	23.842	-11.921	-15.497	-9.239
261160.448	-25.928	-32.485	-1.788	-24.736	-11.623	-19.073	-41.127	-4.172
261160.456	-7.153	-11.921	19.968	-3.874	7.749	-24.438	-33.379	-25.630
261160.464	10.729	3.278	33.677	10.133	22.352	-3.576	-8.643	9.537
261160.472	-38.445	-47.386	-8.941	-42.319	-24.438	-25.332	-53.048	-0.298
261160.480	13.113	5.364	33.975	10.133	24.140	-25.332	-27.120	-19.968
261160.488	-17.583	-28.014	5.960	-18.477	-4.172	-30.100	-42.617	-3.576
261160.496	-2.682	-10.729	24.736	-2.384	9.537	-31.292	-40.233	-24.438
261160.504	7.749	0.894	28.908	1.788	19.372	-19.670	-8.047	-11.027
261160.512	-37.253	-42.915	-6.855	-38.445	-20.564	-37.551	-51.558	-24.140
261160.520	11.623	2.980	34.273	3.576	25.332	-13.709	-12.815	-13.709
261160.528	-23.544	-33.081	2.086	-34.571	-8.345	-11.921	-26.226	10.133
261160.536	-7.749	-12.219	22.352	-11.325	6.557	-11.027	-28.014	-4.470
261160.544	0.000	-7.749	21.458	-1.490	14.305	-5.364	1.192	4.768
261160.551	-32.187	-40.531	-2.086	-32.783	-14.603	-7.451	-21.458	7.153
261160.559	3.874	-6.855	31.888	-5.364	19.073	-16.391	-21.756	-11.027
261160.567	-43.511	-51.558	-9.239	-50.068	-25.034	-27.120	-42.319	-6.855
261160.575	-30.398	-37.551	7.451	-33.379	-15.497	-37.849	-51.558	-27.120
261160.583	-15.497	-24.438	10.431	-22.352	-3.278	-20.862	-12.219	1.490
261160.591	-44.405	-47.386	-12.517	-43.511	-29.206	-24.438	-37.253	-5.364
261160.599	2.384	-3.576	31.292	-1.788	16.391	-2.384	7.451	-2.682
261160.607	-36.955	-43.511	-5.960	-41.425	-21.458	-10.729	-14.901	7.153
261160.615	-8.941	-17.285	23.842	-14.603	5.364	-9.239	-15.199	-3.874
261160.623	-1.192	-11.623	27.120	-13.411	10.133	5.364	11.325	19.670
261160.631	-51.260	-58.711	-15.497	-63.777	-41.127	-24.140	-45.896	-2.384
261160.639	0.000	-10.431	29.802	-10.729	9.537	-7.749	-6.557	-4.172
261160.647	-28.312	-41.127	2.086	-42.617	-15.199	-4.768	-15.497	24.736
261160.655	-7.153	-18.477	23.544	-22.054	2.980	-13.113	-26.524	-1.490
261160.663	0.894	-12.219	23.544	-20.564	5.960	-5.364	-6.855	12.815
261160.671	-43.511	-53.346	-14.603	-62.287	-36.657	-27.418	-55.730	-9.835
261160.679	9.835	-0.894	35.763	-5.960	13.113	-7.451	-8.345	-1.192
261160.687	-35.763	-49.472	-5.662	-54.836	-26.822	-12.517	-26.822	19.372
261160.695	-28.014	-41.425	2.086	-44.703	-20.862	-16.391	-15.795	-1.192
261160.703	-4.470	-11.623	15.795	-11.027	-5.066	-16.987	-3.576	0.298
261160.711	-36.359	-41.425	-7.451	-37.253	-32.783	-25.928	-34.571	-3.278
261160.719	16.093	6.557	40.233	9.835	15.199	-2.086	9.835	7.451
261160.727	-37.253	-47.088	-12.219	-44.405	-34.571	-18.775	-21.458	5.364
261160.735	-34.273	-41.425	-0.894	-39.637	-28.610	-37.253	-42.617	-29.802
261160.743	-17.881	-27.418	12.219	-26.524	-13.709	-15.199	-14.901	11.325
261160.751	-49.174	-56.922	-13.709	-54.538	-44.107	-20.862	-28.014	12.219
261160.759	-5.662	-15.199	24.736	-9.537	-4.470	-15.795	-11.325	-3.278
261160.767	-37.551	-48.876	-7.451	-44.405	-34.869	-24.438	-41.425	15.199
261160.772	-34.273	-44.405	-0.894	-45.896	-28.312	-37.551	-46.492	-24.140
261160.780	-21.160	-34.869	5.662	-36.657	-20.266	-22.352	-17.881	-2.980
261160.788	-59.307	-67.651	-28.312	-65.565	-56.624	-39.637	-56.028	-14.603
261160.796	-13.709	-20.862	15.497	-23.544	-14.603	-21.458	-14.603	-10.431
261160.804	-45.598	-56.624	-15.795	-58.711	-42.617	-14.603	-9.537	20.266
261160.812	-28.014	-38.147	5.364	-39.339	-23.544	-15.497	-33.975	6.557
261160.820	-23.842	-35.167	2.384	-40.233	-20.266	-8.941	-20.266	16.689
261160.828	-69.737	-81.062	-40.233	-86.129	-67.055	-37.551	-53.942	-10.729
261160.836	-20.564	-29.802	5.960	-34.869	-19.968	-18.477	-6.557	-2.384
261160.844	-54.240	-66.161	-24.736	-69.141	-52.452	-19.670	-35.465	21.160
261160.852	-39.637	-50.962	-12.219	-55.730	-41.723	-34.869	-52.452	-14.007
261160.860	-24.736	-36.657	0.000	-41.127	-26.822	-23.246	-49.174	2.682
261160.868	-44.405	-55.134	-11.623	-61.095	-41.425	-28.312	-62.585	10.431
261160.876	-2.682	-16.987	23.246	-25.630	-4.470	-19.372	-15.497	2.980
261160.884	-47.982	-60.797	-19.073	-64.969	-49.472	-28.312	-49.174	11.027
261160.892	-31.292	-40.233	-1.788	-46.492	-33.677	-31.888	-42.915	-18.477
261160.900	-12.219	-25.034	10.431	-32.187	-17.285	-12.815	-9.537	9.239
261160.908	-52.154	-65.863	-27.716	-68.545	-54.240	-31.888	-59.605	-6.557
261160.916	-14.305	-30.696	7.749	-36.359	-21.458	-25.928	-22.650	-7.749
261160.924	-57.220	-72.122	-33.379	-78.678	-61.989	-25.034	-33.379	17.583
261160.932	-44.107	-57.817	-18.477	-65.565	-46.790	-20.564	-31.590	-0.298
261160.940	-7.749	-25.630	16.391	-38.445	-9.537	-12.517	0.000	19.372
261160.948	-49.472	-67.949	-19.372	-81.360	-47.684	-46.194	-59.009	-4.768
261160.956	-9.835	-28.610	16.093	-45.002	-9.537	-35.167	-26.822	-13.113
261160.964	-59.605	-74.804	-29.802	-91.791	-56.326	-43.511	-59.605	-0.298
261160.972	-35.465	-48.876	-5.662	-66.161	-35.763	-35.763	-47.684	-16.689
261160.980	-19.073	-37.253	4.768	-57.518	-19.372	-15.795	-12.219	13.113
261160.988	-51.260	-66.757	-16.093	-78.976	-50.366	-32.485	-47.386	2.682
261161.008	-3.278	-17.285	28.014	-32.783	-6.258	-9.835	-1.192	7.451
261161.016	-45.896	-57.518	-12.517	-75.996	-45.598	-18.477	-23.246	16.093
261161.024	-24.140	-35.465	8.643	-47.982	-26.226	-17.583	-40.829	-1.788
261161.032	-8.643	-25.332	17.583	-39.637	-7.451	-8.643	-12.219	15.199
261161.040	-48.876	-66.161	-18.179	-79.870	-45.300	-24.140	-40.829	1.490
261161.048	-3.576	-22.650	20.564	-38.147	-1.490	-4.768	6.855	2.086
261161.056	-48.578	-61.691	-21.458	-74.804	-44.107	-18.179	-25.034	13.113
261161.064	-39.339	-51.856	-6.258	-67.353	-37.849	-32.783	-45.896	-16.987
261161.072	-21.756	-37.551	5.960	-57.817	-19.968	-10.133	-10.431	14.901
261161.080	-51.856	-64.969	-18.477	-79.870	-46.492	-20.564	-38.743	10.431
261161.088	-10.133	-23.544	19.670	-42.915	-7.749	-9.537	-7.153	1.490
261161.096	-53.346	-67.055	-22.054	-84.937	-49.174	-25.034	-42.319	11.325
261161.104	-35.465	-48.876	-5.364	-67.353	-33.379	-27.418	-38.743	-13.709
261161.112	-15.795	-32.485	6.557	-47.088	-14.007	-5.662	-1.192	15.497
261161.120	-40.531	-53.346	-7.749	-66.161	-35.167	-16.391	-43.213	10.729
261161.128	-2.682	-16.093	27.120	-31.888	-1.788	-6.557	-12.219	-1.490
261161.136	-41.425	-56.624	-11.623	-67.055	-37.551	-13.709	-33.677	19.670
261161.144	-22.948	-40.829	12.219	-51.260	-20.266	-27.716	-43.511	-8.941
261161.152	-7.153	-22.948	24.438	-36.955	-4.172	-8.345	-15.199	15.795
261161.160	-42.319	-53.048	-11.325	-66.757	-37.551	-28.014	-45.598	-1.192
261161.168	-2.086	-16.689	19.073	-29.504	-3.576	-16.689	-6.557	-15.199
261161.176	-38.445	-55.432	-12.219	-67.949	-36.359	-24.736	-45.300	9.239
261161.184	-25.034	-41.425	5.364	-57.518	-22.650	-31.590	-50.068	-21.458
261161.192	-11.325	-29.504	13.709	-44.703	-8.643	-11.325	-5.662	8.047
261161.200	-42.617	-58.115	-11.027	-68.247	-39.041	-25.332	-47.386	5.960
261161.208	3.874	-11.325	33.081	-19.372	9.835	-9.239	-5.066	5.364
261161.216	-42.021	-57.817	-13.709	-66.161	-34.273	-26.822	-33.975	10.133
261161.224	-27.120	-36.955	2.086	-49.472	-19.670	-38.445	-44.107	-29.802
261161.228	-12.815	-26.822	13.411	-42.319	-6.557	-21.458	-19.670	1.490
261161.236	-52.452	-67.055	-21.458	-83.447	-46.492	-41.127	-68.247	-7.153
261161.244	-5.662	-21.160	18.775	-36.061	-2.682	-26.226	-32.485	-14.007
261161.252	-31.292	-47.982	-5.066	-57.518	-26.822	-19.670	-29.802	10.431
261161.260	-10.431	-25.332	17.583	-33.975	-5.960	-26.524	-36.955	-12.517
261161.268	-5.662	-23.544	19.968	-37.849	-1.490	-28.312	-33.379	-8.345
261161.276	-36.061	-50.366	-7.749	-67.353	-35.167	-33.379	-43.511	-9.239
261161.284	12.815	-0.894	35.465	-15.199	10.729	-9.537	1.490	4.470
261161.292	-40.829	-55.134	-13.709	-66.161	-35.465	-29.504	-50.068	2.384
261161.300	-14.007	-28.908	15.795	-35.167	-9.239	-27.120	-52.452	-9.537
261161.308	-7.749	-22.948	17.881	-29.802	-2.682	-15.497	-16.093	9.239
261161.316	-42.617	-53.346	-13.113	-62.287	-36.955	-30.696	-41.127	-2.086
261161.324	9.537	-7.749	30.100	-17.881	9.537	-21.458	-18.179	-12.219
261161.332	-16.391	-33.379	10.133	-36.359	-14.901	-10.729	-21.160	30.100
261161.340	-4.470	-16.987	25.034	-24.736	-2.682	-17.881	-25.928	-9.239
261161.348	1.192	-12.219	23.842	-20.862	3.278	-19.372	-20.862	-7.153
261161.356	-33.379	-46.492	-5.364	-49.472	-32.187	-35.167	-56.922	-11.623
261161.364	13.411	-2.086	38.445	-10.431	11.027	-21.458	-8.643	-5.960
261161.372	-24.438	-38.743	-1.788	-46.492	-25.034	-27.716	-37.849	12.815
261161.380	5.662	-4.768	25.630	-14.305	0.000	-23.544	-35.167	-5.960
261161.388	1.192	-12.219	19.372	-21.756	-4.172	-17.881	-11.027	4.172
261161.396	-45.598	-57.220	-18.477	-68.843	-45.002	-34.571	-42.915	-16.093
261161.404	11.623	-0.596	31.888	-8.643	7.749	-20.862	-8.941	-14.603
261161.412	-8.047	-19.372	13.411	-26.524	-15.199	-21.756	-28.014	10.729
261161.420	5.662	-2.682	27.418	-12.517	-4.172	-31.590	-36.955	-15.497
261161.428	8.047	-2.980	26.226	-11.623	1.192	-21.160	-17.583	5.960
261161.436	-27.418	-37.253	-2.384	-45.002	-33.975	-33.975	-48.280	-5.364
261161.444	19.073	7.749	39.339	0.596	9.537	-14.603	-2.980	-4.768
261161.465	-27.120	-39.339	-0.894	-43.213	-33.677	-33.081	-37.849	4.470
261161.473	-0.894	-10.133	25.630	-19.968	-8.345	-33.379	-39.637	-9.537
261161.481	11.027	1.490	30.696	-12.517	4.172	-20.564	-14.305	2.086
261161.489	-19.670	-25.928	7.451	-37.551	-21.160	-26.822	-42.617	-0.298
261161.497	29.206	22.054	50.366	8.047	24.736	-5.662	-4.172	2.086
261161.505	-14.901	-27.120	9.835	-34.869	-15.199	-17.285	-25.332	9.239
261161.513	4.768	-4.768	32.485	-13.411	4.768	-15.497	-12.517	-4.470
261161.521	18.179	7.153	39.339	0.596	15.497	-1.788	3.576	17.583
261161.529	-16.987	-25.332	7.749	-26.524	-20.862	-22.948	-42.915	0.596
261161.537	22.054	14.603	40.531	6.855	17.583	-15.795	-13.709	-2.682
261161.545	-8.345	-17.285	13.709	-26.226	-6.855	-9.835	-21.458	29.802
261161.553	10.133	1.192	35.167	-1.788	12.219	-13.411	-12.815	-5.662
261161.561	20.266	9.239	38.743	4.768	22.650	-6.258	2.384	17.881
261161.569	-26.524	-37.551	-6.258	-40.531	-25.332	-38.147	-58.711	-9.537
261161.577	24.736	12.517	41.127	8.941	22.948	-2.384	8.941	8.345
261161.585	-16.391	-25.630	7.153	-26.524	-14.603	-24.438	-27.716	8.047
261161.593	-0.596	-8.941	25.332	-11.921	4.172	-39.339	-47.982	-31.590
261161.601	15.795	2.980	37.551	3.874	20.564	-16.093	-16.391	4.768
261161.609	-13.411	-21.160	13.411	-22.352	-8.345	-21.458	-29.802	1.788
261161.617	11.921	2.980	32.783	0.894	13.411	-26.524	-14.305	-18.179
261161.625	-30.100	-39.339	-5.066	-34.571	-27.418	-43.511	-56.326	-8.345
261161.633	-5.364	-11.921	22.352	-8.941	-2.980	-33.379	-35.763	-15.497
261161.641	3.874	-6.855	26.524	-5.960	9.835	-17.881	-10.431	0.000
261161.649	-26.524	-39.339	1.490	-36.657	-19.968	-34.869	-46.790	-21.458
261161.657	26.822	14.901	49.770	12.517	28.908	-15.497	-4.768	-15.497
261161.665	-13.709	-23.544	15.497	-22.650	-11.027	-26.524	-39.637	-0.894
261161.673	15.199	7.153	47.684	7.153	16.987	-22.650	-33.379	-11.921
261161.681	28.312	17.881	56.028	19.372	31.888	-0.596	-0.596	24.140
261161.672	-7.153	-16.987	22.352	-16.987	-2.086	-29.206	-44.107	-3.874
261161.680	28.610	17.285	53.644	17.583	32.187	-39.041	-41.127	-31.888
261161.688	-11.027	-19.073	16.689	-16.689	-7.749	-33.975	-47.088	-7.451
261161.696	14.305	8.047	39.935	7.451	15.795	-28.312	-27.418	-17.583
261161.704	8.345	-1.192	30.100	1.788	8.941	-25.630	-32.187	-4.768
261161.712	-21.458	-25.630	5.662	-17.583	-20.564	-40.233	-63.777	-18.477
261161.720	33.081	23.544	53.942	26.822	33.081	-16.689	-2.980	-14.901
261161.728	-5.364	-15.795	15.199	-8.643	-2.682	-15.497	-15.199	14.603
261161.736	6.855	0.298	28.610	4.470	7.749	-27.418	-21.160	-19.073
261161.744	9.537	0.596	29.504	4.768	12.815	-21.160	-15.795	0.596
261161.752	-24.736	-28.908	0.894	-17.881	-18.775	-43.511	-63.181	-20.862
261161.760	37.849	31.590	56.922	41.723	41.425	-8.047	3.278	-4.172
261161.768	-7.451	-12.219	13.709	-2.682	-3.278	-16.987	-12.815	11.325
261161.776	2.980	-1.490	27.716	8.047	4.172	-30.696	-42.319	-24.438
261161.784	9.537	5.066	30.100	13.411	8.047	-25.928	-32.783	-5.066
261161.792	-17.881	-19.372	6.557	-11.027	-16.987	-43.213	-51.856	-26.822
261161.800	29.504	23.544	45.002	29.504	27.716	-21.458	-4.768	-20.564
261161.808	-14.007	-24.140	5.960	-11.921	-13.411	-29.802	-32.187	-3.278
261161.816	20.564	10.431	43.809	25.034	19.968	-19.968	-10.431	-9.537
261161.824	15.199	8.047	36.359	22.352	11.325	-25.034	-26.226	-10.431
261161.832	-12.219	-18.179	12.219	-3.874	-14.007	-37.551	-51.856	-18.477
261161.840	44.703	33.975	59.307	48.876	41.425	-10.133	8.345	-4.172
261161.848	4.470	-5.066	24.140	8.345	3.576	-13.411	-17.583	7.153
261161.856	14.603	8.345	41.127	21.160	12.815	-21.756	-27.120	-20.564
261161.864	18.179	11.027	39.637	17.583	18.477	-14.901	-16.093	4.470
261161.872	-4.172	-10.431	19.968	3.874	-6.557	-28.312	-42.915	-1.490
261161.880	34.571	23.842	53.346	36.359	30.100	-5.066	3.874	2.086
261161.888	1.490	-5.364	20.564	8.345	-1.788	-9.537	-18.775	20.862
261161.893	41.127	37.253	59.307	48.578	34.273	-21.458	-19.968	-10.729
261161.901	36.359	30.696	51.558	39.339	29.206	-27.716	-19.073	-14.305
261161.909	-0.298	-4.470	22.054	7.749	-5.364	-46.194	-64.671	-28.908
261161.917	47.684	40.829	61.691	52.452	39.339	-26.822	-18.775	-25.332
261161.925	12.219	3.874	25.332	18.775	4.172	-25.928	-30.398	1.192
261161.933	36.657	30.398	51.856	48.280	28.908	-17.285	-13.113	-8.345
261161.941	40.531	32.783	53.346	52.154	35.465	-10.431	5.960	5.066
261161.949	-4.768	-10.133	18.179	5.364	-7.153	-45.598	-42.617	-20.564
261161.957	31.888	27.120	48.578	40.829	27.418	-28.014	-19.670	-21.458
261161.965	-10.133	-14.603	10.431	2.980	-8.643	-35.167	-45.002	-7.451
261161.973	9.835	4.470	30.696	23.544	9.835	-40.531	-37.253	-37.849
261161.981	23.842	21.160	42.319	41.127	22.650	-11.325	-2.980	5.662
261161.989	-0.298	0.000	25.034	21.458	-0.596	-20.564	-18.775	-1.788
261161.997	37.551	30.398	56.624	48.876	39.339	-14.603	-9.239	-16.689
261162.005	-9.537	-19.073	11.027	4.172	-2.086	-31.888	-36.359	-16.391
261162.013	17.881	11.623	41.127	37.551	21.458	-44.703	-37.551	-41.127
261162.021	25.332	13.411	44.405	43.809	30.100	-31.292	-11.921	-13.709
261162.029	14.603	5.960	39.935	27.120	23.544	-37.253	-44.405	-15.795
261162.037	93.579	87.917	115.633	109.673	102.520	-16.689	3.576	-8.643
261162.045	84.639	83.447	114.739	103.414	99.242	-26.822	-24.438	-5.662
261162.053	137.687	144.243	168.085	156.462	146.925	-25.630	-23.544	-26.524
261162.061	196.099	206.530	227.094	212.193	205.040	-13.411	10.431	1.192
261162.069	202.060	218.153	246.763	215.173	213.087	-39.041	-44.107	-16.689
261162.077	260.472	278.652	297.725	271.201	270.307	-25.034	-14.305	-25.928
261162.085	249.147	273.287	289.679	263.751	258.088	-25.630	-24.438	-7.153
261162.093	284.612	309.944	323.057	301.003	287.592	-29.206	-23.544	-23.544
261162.101	288.486	311.136	322.759	304.580	293.851	0.298	13.709	9.835
261162.109	215.471	236.928	254.512	236.630	222.921	-23.842	-41.425	-11.325
261162.126	235.438	247.955	263.751	252.128	241.995	-8.345	11.623	-14.007
261162.134	175.834	184.476	202.954	189.841	186.861	-2.384	-2.980	9.239
261162.142	162.423	168.383	194.013	178.516	173.151	-12.219	-16.391	-20.862
261162.150	137.985	137.985	163.913	153.482	146.925	7.153	11.027	12.219
261162.158	106.990	106.096	135.303	126.064	114.143	0.596	-3.874	10.729
261162.166	152.886	149.608	175.834	172.257	159.144	17.881	50.664	14.901
261162.174	106.990	100.732	134.110	123.680	119.209	22.054	18.477	29.206
261162.182	127.256	118.613	151.694	146.925	136.495	18.477	11.027	4.172
261162.190	122.190	113.845	142.455	149.310	129.044	33.677	46.492	35.465
261162.198	71.526	63.181	99.540	101.030	80.466	6.258	-3.576	7.153
261162.206	132.024	121.295	152.588	157.952	142.455	39.637	57.817	25.928
261162.214	86.725	75.400	110.865	116.527	100.732	31.292	34.869	34.273
261162.222	95.665	88.811	120.699	126.064	108.778	19.372	19.968	-2.682
261162.230	110.865	99.540	127.852	144.541	124.872	42.319	55.134	43.511
261162.238	93.579	81.658	117.123	130.832	111.759	43.511	42.021	45.002
261162.246	118.315	106.990	134.408	151.098	133.216	32.485	39.637	9.239
261162.254	74.208	65.863	88.513	115.335	90.003	13.113	11.623	15.199
261162.262	102.818	93.877	120.699	145.137	120.997	19.372	23.544	4.172
261162.270	110.567	99.540	124.574	151.396	129.044	36.657	50.664	31.590
261162.278	82.850	75.400	104.904	129.640	102.222	26.822	28.312	13.411
261162.286	105.202	94.771	120.401	151.396	124.276	10.431	16.689	-8.941
261162.294	61.989	50.664	81.956	109.971	84.341	2.980	-7.153	9.835
261162.302	95.665	87.917	114.739	148.714	113.845	18.179	28.610	3.576
261162.310	92.983	82.254	105.500	141.561	111.759	17.881	30.398	12.815
261162.318	54.836	45.300	72.122	108.778	74.804	-5.364	-10.133	-5.066
261162.326	99.838	89.407	112.951	150.502	120.997	11.623	25.034	7.451
261162.334	47.386	38.445	61.095	100.732	67.651	-2.682	1.788	8.643
261162.342	74.804	71.526	89.109	132.620	93.579	4.172	17.583	-10.729
261162.348	70.930	64.969	81.360	125.468	91.493	13.411	16.093	14.603
261162.356	26.524	22.948	45.002	83.148	49.174	-19.073	-23.842	-22.650
261162.364	67.353	61.691	83.745	118.315	91.493	7.153	32.783	-9.239
261162.372	30.994	20.862	48.280	85.831	58.413	-5.364	7.451	1.490
261162.380	48.578	40.531	63.181	106.394	71.526	-12.815	5.960	-27.716
261162.388	51.856	41.127	65.565	104.010	74.804	0.596	8.047	2.086
261162.396	30.994	25.332	53.048	91.791	56.028	-6.557	-10.431	-5.066
261162.404	74.506	63.777	88.215	126.660	98.348	5.960	26.226	-1.192
261162.412	29.504	17.881	46.194	81.062	57.220	-3.576	-0.894	5.364
261162.420	52.750	46.194	72.122	110.567	79.870	-12.219	-6.557	-21.160
261162.428	53.644	44.703	68.247	106.096	80.466	2.384	16.391	5.364
261162.436	28.908	23.842	48.876	84.937	56.922	-13.709	-8.643	-6.855
261162.444	80.764	73.612	93.281	133.216	108.480	9.239	31.590	7.749
261162.452	43.213	35.763	60.499	97.156	70.333	3.576	-3.278	14.901
261162.460	67.949	59.605	82.850	119.805	91.791	2.980	2.086	-11.027
261162.468	72.122	59.009	83.745	120.103	101.030	30.994	46.790	32.187
261162.476	43.213	32.485	64.075	92.387	74.506	2.980	-0.894	14.007
261162.484	73.016	60.797	86.129	116.825	100.732	-1.788	11.921	-14.007
261162.492	29.504	17.583	43.809	83.447	61.095	-12.815	-21.756	-3.874
261162.500	61.095	51.558	77.486	110.567	90.301	-5.066	2.980	-12.219
261162.508	67.651	55.432	77.784	112.653	95.069	14.901	27.716	16.093
261162.516	46.790	36.955	61.095	95.963	75.698	8.643	4.768	9.239
261162.524	84.639	72.420	92.387	129.044	113.547	24.736	32.783	10.729
261162.532	29.802	21.756	44.107	74.506	61.095	6.855	-5.066	10.431
261162.540	55.730	50.664	74.506	103.712	86.725	6.557	16.987	-6.855
261162.548	57.220	48.876	72.718	105.202	87.023	19.968	34.571	29.802
261162.556	28.908	20.266	47.386	75.698	59.009	10.431	3.874	14.901
261162.564	62.287	53.048	74.506	104.308	91.195	20.564	43.809	5.960
261162.586	-11.027	-18.775	8.345	31.590	22.352	-3.576	-15.795	5.960
261162.594	22.650	18.179	39.637	69.737	53.346	-11.027	-13.113	-20.564
261162.602	33.677	25.034	41.723	78.678	65.863	7.451	17.285	12.815
261162.610	-0.894	-6.855	13.113	44.405	27.716	0.000	-1.490	1.490
261162.618	37.253	27.716	49.770	76.890	64.373	21.458	45.598	12.517
261162.626	-23.246	-32.187	-4.470	18.477	7.451	-1.490	-5.364	9.239
261162.634	7.451	5.066	23.544	52.750	32.485	-1.192	0.298	-8.643
261162.642	7.451	2.086	20.266	44.703	31.590	5.662	10.431	7.451
261162.650	-34.571	-37.551	-15.795	5.066	-5.066	-20.862	-21.458	-17.285
261162.658	2.086	-2.682	15.497	36.359	28.014	-5.066	15.199	-15.795
261162.666	-36.657	-44.107	-20.266	-3.576	-11.027	-5.662	-1.788	11.027
261162.674	7.153	-1.490	19.968	44.107	30.398	9.239	21.756	9.239
261162.682	-9.835	-18.775	-0.596	25.630	12.219	2.384	14.603	11.921
261162.690	-40.531	-43.511	-22.948	-2.980	-16.689	-14.901	-1.788	-8.345
261162.698	1.788	-2.682	11.623	36.955	21.756	-3.278	12.219	-4.172
261162.706	-49.174	-53.346	-36.359	-8.345	-29.206	-17.583	-23.842	-3.278
261162.714	-19.372	-20.862	-5.066	22.054	0.000	-6.258	14.007	-9.537
261162.722	-16.093	-20.266	-2.980	22.650	5.662	8.345	20.266	20.564
261162.730	-52.750	-52.154	-35.465	-11.921	-35.465	-18.477	-27.716	-8.643
261162.738	2.682	0.596	14.305	35.465	18.775	8.345	33.677	8.345
261162.746	-24.438	-27.418	-9.537	7.153	-4.470	12.517	25.630	33.677
261162.754	-7.451	-10.133	3.576	29.504	10.729	-6.258	14.305	-10.729
261162.762	-14.603	-18.775	-8.047	22.352	5.364	-3.576	1.788	9.537
261162.770	-42.617	-44.703	-28.610	-3.278	-22.948	-18.775	-17.583	-4.172
261162.778	8.643	6.258	16.391	46.492	23.842	0.298	32.485	-2.682
261162.786	-35.167	-33.677	-28.014	6.557	-20.862	-16.093	-11.027	-3.278
261162.794	-3.576	-0.596	2.086	35.167	8.047	-14.901	1.192	-19.968
261162.802	-4.470	-3.278	0.596	32.783	8.345	5.662	33.379	16.391
261162.790	-30.100	-27.418	-17.583	9.835	-16.093	-1.788	8.643	9.239
261162.798	9.537	10.133	13.113	47.684	21.458	-0.894	23.544	4.470
261162.806	-27.120	-30.398	-19.670	10.133	-11.623	-3.278	6.258	19.670
261162.814	8.047	7.749	18.179	47.684	21.160	2.980	22.650	5.066
261162.822	-1.192	-2.384	4.172	37.253	10.133	2.086	23.842	13.411
261162.830	-34.273	-32.187	-22.054	4.768	-20.564	-23.246	-23.544	-10.133
261162.838	9.835	8.047	20.862	38.743	22.948	-7.749	8.941	-2.086
261162.846	-39.041	-42.319	-22.054	-6.855	-24.140	-17.881	-14.007	6.258
261162.854	-10.133	-8.345	4.470	19.968	0.298	-22.054	-5.960	-14.007
261162.862	-14.007	-14.305	-6.258	13.411	-4.768	-19.073	8.643	-4.172
261162.870	-47.982	-46.194	-35.465	-14.901	-37.551	-36.657	-39.637	-22.650
261162.878	-5.960	-8.047	0.596	20.564	3.874	-19.670	-0.894	-12.815
261162.886	-41.425	-45.300	-33.081	-16.987	-30.398	-20.862	-19.073	8.047
261162.894	-17.881	-16.987	-6.855	13.709	-10.133	-19.670	-7.749	-15.199
261162.902	-19.372	-22.054	-14.603	10.729	-14.901	-8.941	7.451	6.557
261162.910	-50.962	-51.856	-39.339	-16.987	-45.598	-38.445	-34.571	-23.544
261162.918	2.682	1.788	4.768	35.763	5.066	-10.431	19.968	-7.153
261162.926	-47.684	-49.472	-40.829	-15.795	-41.127	-16.987	-17.881	16.391
261162.934	-16.093	-16.093	-6.855	14.305	-8.941	-16.987	-3.576	3.874
261162.942	-0.894	-1.192	-1.192	29.802	4.172	-0.298	19.670	19.968
261162.950	-29.802	-29.504	-25.034	2.682	-25.630	-20.862	-21.756	-11.027
261162.958	-4.172	-5.364	-0.596	28.908	2.384	-13.709	6.557	-15.795
261162.966	-36.955	-39.637	-32.187	-8.047	-24.736	-16.391	-6.258	8.047
261162.974	0.298	2.682	3.576	31.888	9.239	-1.490	10.133	4.470
261162.982	4.172	4.172	3.874	39.041	13.709	5.662	19.968	27.716
261162.990	-33.677	-30.696	-24.140	5.364	-18.775	-21.160	-19.372	3.874
261162.998	26.226	28.312	30.100	61.393	41.723	9.835	38.147	23.544
261163.006	-17.583	-19.372	-17.285	17.881	-3.576	-6.855	-0.596	18.179
261163.012	-18.477	-14.901	-12.815	25.928	-4.172	-19.372	-2.384	-15.795
261163.020	-5.662	-5.662	-1.490	31.292	10.431	-4.470	6.258	12.815
261163.028	-23.246	-22.948	-16.689	15.795	-6.258	-25.332	-30.696	-7.451
261163.036	22.948	25.034	22.352	66.161	37.849	-9.537	21.756	-6.258
261163.044	-20.862	-19.372	-12.517	21.756	1.490	-19.968	0.596	5.662
261163.052	8.643	11.325	15.199	53.346	27.716	-13.411	5.662	-10.431
261163.060	15.795	14.901	13.113	58.115	29.802	-2.086	21.160	14.901
261163.068	-14.901	-16.391	-13.709	25.928	4.470	-17.285	-12.219	-3.278
261163.076	42.915	40.531	37.253	80.168	61.095	9.537	40.531	12.517
261163.084	-8.345	-9.239	-9.537	35.167	11.623	-12.517	-2.384	7.153
261163.092	4.172	6.855	3.576	52.452	22.352	-26.822	-0.298	-17.881
261163.100	4.172	8.345	2.086	49.770	24.438	-18.775	1.192	0.298
261163.108	-12.815	-12.815	-8.345	27.120	11.325	-25.034	-20.564	-9.537
261163.116	36.955	31.590	33.379	69.141	58.711	-3.278	24.736	-3.576
261163.124	8.047	6.855	6.258	48.578	28.312	5.960	28.610	28.014
261163.132	34.869	32.783	35.763	73.910	55.432	6.855	31.590	10.431
261163.140	22.650	19.372	23.246	60.201	48.280	5.066	27.716	22.352
261163.148	-1.490	0.894	3.874	39.637	27.120	-9.835	0.596	-0.596
261163.156	47.088	45.002	44.405	85.235	72.122	19.073	57.518	18.477
261163.164	13.709	9.239	19.670	54.240	42.617	17.285	28.610	33.081
261163.172	47.088	47.386	54.240	91.791	71.526	12.815	27.418	11.921
261163.180	47.982	46.194	48.280	92.387	74.804	21.160	50.366	36.657
261163.188	20.862	18.477	25.034	67.353	45.300	11.325	26.524	23.544
261163.196	65.267	62.883	63.181	110.269	90.599	16.391	53.942	19.968
261163.204	18.179	17.583	19.670	66.757	45.896	-4.470	14.007	8.345
261163.212	61.691	61.393	64.969	109.971	89.407	16.391	41.723	10.431
261163.220	59.903	59.307	66.459	107.586	91.195	28.908	50.664	39.041
261163.228	44.107	48.280	52.452	101.328	72.122	15.795	28.014	26.226
261163.246	85.831	85.235	83.745	135.303	113.547	14.901	42.617	9.835
261163.254	42.915	42.617	51.856	91.493	75.698	10.729	20.266	16.391
261163.262	85.235	82.850	91.791	130.236	115.335	19.372	44.405	7.749
261163.270	97.156	93.877	95.963	144.839	124.276	33.379	67.353	33.379
261163.278	78.380	75.996	79.274	120.699	104.010	27.418	52.452	26.822
261163.286	92.685	91.195	89.407	139.177	120.699	29.504	58.711	23.246
261163.294	32.783	36.955	38.445	86.725	65.267	20.862	33.677	29.802
261163.302	70.333	70.632	76.592	121.891	101.328	42.915	74.506	31.590
261163.310	46.790	47.386	47.684	95.367	77.188	33.975	61.393	36.359
261163.318	14.305	16.987	17.583	71.228	42.319	7.749	16.093	5.662
261163.326	54.836	53.346	50.068	106.990	81.360	22.650	54.836	12.815
261163.334	-3.874	-4.470	-2.384	51.558	26.822	13.709	20.564	23.544
261163.342	20.266	20.862	22.650	75.698	50.962	9.835	33.975	-6.258
261163.350	9.537	8.345	5.066	62.287	40.829	15.497	36.359	14.305
261163.358	2.980	2.980	5.066	57.220	34.571	13.709	22.352	13.113
261163.366	41.127	35.465	37.849	87.619	72.420	17.285	47.684	11.325
261163.374	-1.490	2.086	-2.384	56.326	28.312	8.345	18.477	22.054
261163.382	42.915	47.386	42.915	101.924	70.035	27.418	55.134	25.928
261163.390	19.968	22.352	20.564	77.486	52.154	22.352	41.723	34.869
261163.398	-10.729	-8.047	0.298	46.492	23.544	2.384	5.066	8.047
261163.406	25.332	29.504	26.822	82.254	57.817	14.901	49.174	11.325
261163.414	-20.862	-18.179	-15.795	34.273	14.305	-7.451	1.192	10.133
261163.422	19.372	19.670	20.266	76.294	47.982	0.596	20.266	1.490
261163.430	7.749	8.941	6.258	63.181	40.233	10.133	32.485	25.928
261163.438	-27.120	-24.438	-20.862	28.610	9.537	-22.948	-13.411	-14.603
261163.446	22.352	23.842	21.458	78.976	56.326	5.662	33.677	9.835
261163.454	-23.842	-21.458	-20.564	31.292	8.643	-7.153	-6.855	19.073
261163.462	8.345	9.835	11.623	60.797	39.935	-0.596	14.305	3.874
261163.470	3.278	0.894	2.086	53.644	34.869	5.364	18.775	28.610
261163.478	-20.266	-19.073	-17.285	32.783	13.411	-17.285	-16.987	0.596
261163.486	30.398	30.994	25.332	80.764	62.883	9.239	28.908	9.537
261163.494	-13.113	-10.729	-14.007	36.359	21.160	9.537	15.497	27.120
261163.502	15.199	17.285	13.709	65.863	46.492	3.576	11.027	3.576
261163.510	1.192	2.682	-2.682	50.068	33.379	5.364	13.411	20.862
261163.518	-27.120	-24.736	-28.312	20.266	5.364	-12.219	-11.623	-1.788
261163.526	10.729	6.258	5.960	46.790	40.233	-2.384	23.544	-2.086
261163.534	-35.167	-33.975	-33.379	7.451	-4.470	-16.391	-16.689	3.576
261163.542	16.093	21.458	14.305	59.903	45.896	10.431	35.763	11.027
261163.550	4.768	7.451	-2.086	44.703	33.975	-5.662	20.266	13.709
261163.558	-16.689	-13.411	-13.411	26.226	13.411	-14.901	-14.305	4.768
261163.566	15.795	14.305	11.325	49.770	44.405	-10.133	11.027	-2.384
261163.574	-38.445	-41.723	-40.233	-5.364	-9.239	-28.908	-20.862	-8.047
261163.582	-5.066	-7.749	-6.855	32.783	20.862	-20.862	-4.768	-17.881
261163.590	-12.517	-14.901	-16.689	22.650	14.603	-12.815	6.557	10.431
261163.598	-45.896	-46.492	-41.425	-13.709	-17.285	-35.465	-37.551	-14.305
261163.606	-3.576	-5.960	-4.768	25.034	21.160	-11.325	5.960	1.192
261163.614	-46.194	-45.598	-45.598	-21.160	-22.650	-13.709	-4.768	15.199
261163.622	-25.630	-28.312	-28.610	-5.960	-4.470	-21.458	4.768	-18.775
261163.630	-39.935	-44.107	-43.213	-22.054	-18.179	-21.458	-5.662	2.086
261163.638	-61.095	-59.903	-58.413	-37.849	-42.319	-32.187	-36.955	-16.391
261163.646	-14.901	-15.497	-21.756	5.662	1.192	-25.630	-8.047	-11.325
261163.654	-70.632	-69.439	-74.506	-43.213	-53.346	-40.531	-34.273	-4.768
261163.662	-46.492	-42.617	-49.472	-16.689	-31.888	-38.147	-9.537	-28.610
261163.670	-54.836	-53.346	-58.115	-30.994	-40.531	-31.888	-10.133	-4.470
261163.678	-75.400	-73.016	-70.035	-54.836	-61.393	-44.405	-36.359	-23.544
261163.686	-21.458	-23.544	-21.458	-7.451	-8.047	-19.670	25.928	-14.007
261163.692	-77.784	-75.102	-75.996	-59.903	-65.267	-38.147	-15.497	-12.815
261163.700	-53.942	-47.982	-53.346	-32.783	-44.107	-42.319	-23.246	-29.206
261163.708	-65.267	-63.479	-72.122	-46.194	-57.220	-43.809	-22.054	-16.689
261163.716	-74.506	-70.632	-76.592	-54.836	-67.055	-42.319	-35.167	-20.266
261163.724	-39.041	-37.551	-46.492	-25.034	-30.994	-29.504	2.384	-20.266
261163.732	-73.314	-75.698	-74.804	-59.903	-62.585	-24.736	-19.073	3.874
261163.740	-42.021	-44.107	-48.578	-24.438	-35.763	-21.756	-1.490	-16.093
261163.748	-69.737	-73.910	-75.996	-58.115	-60.797	-46.790	-30.696	-17.881
261163.756	-86.427	-88.811	-87.917	-70.930	-79.572	-54.836	-48.876	-30.100
261163.764	-37.551	-39.935	-47.088	-18.477	-34.869	-29.206	2.682	-16.987
261163.772	-73.016	-74.208	-78.976	-52.750	-66.161	-36.359	-18.477	-6.258
261163.780	-43.213	-45.300	-47.088	-29.206	-36.061	-42.021	-24.140	-30.994
261163.788	-41.127	-44.703	-43.511	-33.677	-31.888	-25.928	-9.537	-0.894
261163.796	-52.154	-56.624	-48.578	-46.492	-39.637	-44.107	-44.703	-25.630
261163.804	4.172	-2.682	10.729	2.384	19.968	-36.657	-17.881	-20.564
261163.812	-14.901	-20.564	5.364	-15.795	6.258	-44.703	-43.511	-15.497
261163.820	69.141	66.757	90.301	64.373	87.917	-21.160	-2.980	-12.517
261163.828	107.586	108.182	134.110	96.858	130.236	-10.133	2.980	17.583
261163.836	98.348	105.202	132.918	85.533	124.276	-33.677	-28.908	-16.391
261163.844	163.615	164.807	193.417	137.985	188.351	-16.391	5.960	-5.960
261163.852	112.355	119.209	132.322	99.242	128.746	-34.869	-37.551	-2.980
261163.860	155.866	168.979	171.065	151.098	166.893	-21.458	-7.451	-3.576
261163.868	123.382	127.256	138.879	110.269	136.495	-22.948	-7.451	3.874
261163.876	70.333	74.208	84.341	65.267	75.698	-33.081	-35.763	-14.305
261163.884	99.540	100.136	104.010	92.089	101.328	-14.603	14.603	-7.153
261163.892	36.955	38.743	40.829	34.273	40.233	-15.199	-4.470	11.623
261163.900	44.703	50.664	48.578	46.194	43.213	-11.921	1.192	-4.768
261163.908	25.630	27.716	25.332	33.081	22.650	-9.537	5.364	10.133
261163.915	5.066	8.047	8.345	20.266	0.894	-26.226	-21.458	-7.749
261163.923	37.253	40.233	30.696	47.088	29.504	1.192	37.849	9.537
261163.931	-26.822	-23.544	-30.994	-11.325	-34.571	-11.027	-2.980	7.153
261163.939	22.650	22.352	15.199	37.253	14.603	4.172	23.544	9.835
261163.947	5.066	5.364	-4.470	17.881	-0.596	2.384	20.266	19.670
261163.955	-21.160	-16.689	-28.312	0.596	-26.822	-11.027	-5.364	-1.788
261163.963	18.477	21.160	3.874	40.233	12.219	16.391	44.107	22.650
261163.971	-25.928	-19.968	-36.955	3.874	-30.100	16.689	25.630	37.253
261163.979	1.490	6.855	-16.093	30.398	-7.749	14.305	41.723	11.027
261163.987	-23.246	-23.842	-45.300	-4.768	-30.696	5.960	16.391	12.815
261163.995	-34.571	-32.485	-49.174	-11.325	-38.743	9.537	1.788	11.921
261164.003	6.855	7.153	-16.093	30.696	0.298	28.312	49.174	33.081
261164.011	-50.664	-47.684	-68.247	-23.544	-53.048	6.557	14.007	26.822
261164.019	-25.928	-22.948	-43.809	4.172	-31.292	-2.086	13.709	-5.364
261164.027	-26.226	-25.034	-51.558	0.298	-30.696	10.133	33.081	28.312
261164.035	-43.809	-41.425	-63.479	-17.881	-47.386	4.470	17.881	15.497
261164.043	-9.239	-7.749	-34.273	19.073	-15.199	14.007	42.915	14.901
261164.051	-52.452	-52.154	-78.082	-20.564	-56.028	0.596	5.960	28.312
261164.059	-14.305	-13.411	-41.425	14.007	-21.160	14.007	39.637	17.285
261164.067	-36.955	-37.849	-64.075	-8.047	-40.233	0.894	19.670	12.517
261164.075	-58.413	-54.836	-79.572	-23.544	-63.479	-18.179	-10.729	-16.987
261164.083	-17.285	-14.007	-45.300	10.133	-21.756	2.682	35.167	-3.874
261164.091	-53.942	-51.856	-80.466	-23.246	-55.432	3.576	11.027	13.411
261164.099	-9.835	-5.364	-44.107	22.650	-18.775	22.054	47.982	17.285
261164.107	-30.994	-31.888	-66.459	-4.172	-36.359	14.007	25.928	25.332
261164.115	-56.922	-59.307	-85.831	-32.187	-59.605	-8.047	-4.172	-4.768
261164.123	-16.689	-17.285	-51.558	11.027	-21.160	9.537	27.120	14.603
261164.131	-57.220	-52.750	-88.215	-20.564	-61.393	2.980	4.470	23.842
261164.137	-25.928	-25.928	-61.691	0.000	-36.061	0.000	16.987	-11.027
261164.145	-32.783	-33.081	-73.612	-4.172	-42.319	-0.894	14.305	17.881
261164.153	-48.876	-48.280	-84.341	-16.987	-57.518	-14.305	2.086	1.788
261164.161	-2.980	-4.172	-50.068	23.246	-18.775	14.603	44.703	31.292
261164.169	-61.393	-58.115	-104.010	-30.398	-73.910	-10.133	-11.027	5.662
261164.177	-32.485	-31.292	-76.592	-5.662	-44.405	-11.623	-4.768	-16.093
261164.185	-33.677	-35.465	-83.148	-9.239	-46.194	4.768	19.968	15.795
261164.193	-46.790	-43.213	-94.473	-16.689	-60.797	-6.258	-1.788	0.894
261164.201	3.278	2.980	-50.664	26.822	-14.305	19.372	39.339	22.054
261164.209	-45.896	-46.790	-91.195	-22.650	-62.883	10.133	11.325	29.802
261164.217	-5.960	-3.874	-53.644	22.352	-25.928	17.285	35.167	13.113
261164.225	-23.246	-25.630	-74.208	2.980	-41.425	12.517	27.716	25.332
261164.233	-51.558	-48.876	-98.646	-23.246	-69.737	-0.894	-1.788	8.941
261164.241	-11.027	-11.325	-67.055	13.411	-28.610	19.073	40.233	22.054
261164.249	-59.307	-56.922	-115.037	-30.100	-78.380	5.066	6.557	26.226
261164.257	-16.689	-12.815	-74.208	11.325	-41.127	8.941	23.544	18.179
261164.265	-26.524	-22.650	-89.705	4.172	-50.962	12.815	32.187	35.763
261164.273	-46.790	-37.253	-104.904	-7.451	-70.333	0.000	-5.662	10.133
261164.281	-8.345	-5.364	-74.208	22.352	-33.379	13.709	29.504	21.458
261164.289	-53.048	-48.280	-115.931	-20.564	-77.486	2.384	7.153	30.398
261164.297	-16.689	-12.815	-86.725	15.199	-46.194	14.007	45.002	18.179
261164.305	-39.041	-38.147	-115.037	-16.391	-68.247	8.941	22.948	25.928
261164.313	-46.790	-44.703	-116.825	-17.881	-76.592	5.364	-1.788	8.345
261164.321	6.258	8.345	-71.228	36.657	-25.928	44.107	61.691	39.339
261164.329	-52.452	-50.068	-118.315	-26.524	-79.274	30.398	27.418	48.578
261164.337	-28.014	-22.948	-98.050	-1.192	-59.903	30.994	37.551	27.716
261164.345	-35.167	-32.187	-113.547	-11.027	-70.035	33.379	42.915	54.538
261164.353	-46.194	-42.617	-122.190	-16.093	-83.745	19.073	25.928	31.292
261164.359	6.258	6.258	-78.678	31.888	-31.888	40.829	75.400	36.061
261164.367	-43.511	-40.829	-122.786	-11.623	-75.996	29.206	27.120	45.002
261164.375	-17.583	-13.411	-96.560	13.709	-53.644	30.994	40.531	31.292
261164.383	-39.637	-37.849	-123.382	-13.709	-77.188	31.590	36.359	44.703
261164.391	-74.804	-73.612	-156.164	-48.280	-113.249	13.113	15.199	19.968
261164.399	-42.617	-39.935	-132.024	-15.795	-85.235	34.869	59.307	33.677
261164.407	-84.341	-68.843	-177.622	-38.445	-129.938	17.583	16.987	36.061
261164.415	-43.511	-31.888	-140.667	-0.298	-94.771	15.795	31.292	16.987
261164.423	-52.750	-44.703	-148.714	-16.093	-102.222	31.292	44.107	51.558
261164.431	-60.797	-48.578	-151.396	-19.670	-111.461	44.107	50.664	48.876
261164.439	-32.485	-20.862	-131.726	1.788	-86.427	38.743	65.863	35.465
261164.447	-75.400	-66.757	-170.767	-41.723	-126.958	2.682	1.788	27.716
261164.455	-26.822	-19.968	-127.852	4.470	-80.168	17.881	40.531	28.908
261164.463	-51.558	-45.598	-151.992	-24.438	-105.202	17.285	32.783	42.021
261164.471	-64.969	-54.538	-158.250	-35.763	-118.017	21.458	16.987	43.511
261164.479	-15.497	-5.066	-113.845	7.153	-71.228	44.703	60.797	55.134
261164.487	-74.506	-63.777	-171.661	-50.962	-132.918	20.862	21.458	37.253
261164.495	-53.048	-44.405	-154.674	-28.610	-113.845	26.822	46.194	23.544
261164.503	-65.863	-55.432	-163.913	-39.339	-123.680	47.386	64.075	59.605
261164.511	-70.930	-55.730	-163.913	-39.339	-134.110	46.492	36.955	50.664
261164.519	-26.226	-12.815	-126.064	-1.490	-92.685	61.393	80.466	60.499
261164.527	-77.486	-65.565	-173.450	-59.903	-142.157	32.187	24.736	56.326
261164.535	-36.955	-26.822	-137.985	-22.948	-105.202	36.955	45.598	45.598
261164.543	-52.750	-44.703	-158.250	-38.147	-119.805	41.425	50.068	59.605
261164.551	-62.585	-50.366	-166.893	-40.829	-132.024	33.379	36.359	47.684
261164.559	-22.948	-8.941	-128.150	-0.298	-91.791	61.095	81.658	67.353
261164.567	-64.671	-53.942	-165.701	-43.809	-132.620	50.366	47.982	71.526
261164.575	-31.292	-16.689	-140.667	-8.345	-103.712	45.896	51.558	41.425
261164.596	-44.405	-35.167	-160.336	-23.544	-117.123	55.134	61.095	71.228
261164.604	-45.598	-30.100	-155.270	-18.477	-115.931	67.651	69.141	78.678
261164.612	-19.372	-6.557	-136.197	4.470	-91.791	62.585	78.082	70.632
261164.620	-65.565	-51.856	-177.026	-38.743	-134.110	45.896	41.723	62.287
261164.628	-32.187	-16.987	-146.925	-1.788	-104.308	57.518	74.506	46.492
261164.636	-56.624	-42.319	-174.344	-27.716	-126.958	56.922	71.526	65.863
261164.644	-56.624	-41.127	-168.681	-30.994	-125.766	61.989	68.247	68.545
261164.652	-13.709	-1.192	-129.938	10.729	-85.831	75.400	90.897	74.506
261164.660	-48.876	-36.061	-162.721	-15.795	-122.488	73.910	69.737	84.043
261164.668	-5.662	9.537	-126.660	24.140	-80.466	92.983	103.116	79.870
261164.676	-23.246	-11.325	-145.137	5.066	-92.983	95.665	98.646	101.626
261164.684	-27.716	-15.795	-138.283	-4.172	-98.646	76.294	75.400	78.678
261164.692	14.901	21.756	-101.328	31.292	-55.134	91.791	119.209	82.850
261164.700	-25.630	-15.199	-136.495	-1.788	-90.897	97.454	101.626	98.646
261164.708	5.066	14.305	-111.759	28.014	-64.671	85.235	90.599	73.016
261164.716	-6.557	0.596	-126.958	12.219	-76.294	86.725	83.148	98.348
261164.724	-15.199	-5.364	-128.150	9.537	-81.658	88.513	86.427	94.771
261164.732	15.199	25.332	-106.692	40.531	-54.538	98.050	126.958	89.407
261164.740	-28.312	-17.881	-141.263	0.298	-94.175	86.129	87.917	94.473
261164.748	18.179	29.206	-93.579	48.578	-45.896	108.778	129.640	97.156
261164.756	-3.576	5.960	-121.295	22.650	-68.247	113.845	123.978	113.249
261164.764	-19.372	-7.451	-134.408	7.153	-84.639	101.328	97.454	93.877
261164.772	26.226	38.147	-93.579	55.432	-41.723	123.382	151.396	106.692
261164.780	-22.650	-11.921	-137.091	8.047	-89.109	111.759	112.057	114.143
261164.788	0.000	10.133	-115.633	28.014	-68.545	95.069	111.759	75.698
261164.796	-13.709	-6.855	-131.726	10.431	-79.572	101.328	115.931	92.983
261164.804	-20.564	-8.643	-137.389	6.557	-85.235	97.752	92.387	90.003
261164.812	16.093	27.716	-107.288	32.187	-50.962	109.375	123.382	100.434
261164.819	-42.021	-28.908	-154.078	-22.352	-108.480	90.599	89.407	87.917
261164.827	-8.941	6.855	-121.295	15.199	-79.572	91.493	104.010	69.439
261164.835	-20.266	-4.172	-132.918	2.384	-90.599	102.520	119.209	95.069
261164.843	-31.888	-16.093	-140.965	-11.921	-103.414	88.811	86.129	81.658
261164.851	9.239	21.458	-107.288	26.226	-63.777	112.951	129.640	100.732
261164.859	-41.425	-25.332	-152.588	-19.968	-111.163	101.924	100.136	100.136
261164.867	-10.431	5.066	-125.170	3.278	-83.745	98.348	119.805	75.996
261164.875	-26.524	-11.623	-141.263	-19.073	-99.242	100.136	117.719	89.407
261164.883	-28.908	-11.921	-139.177	-14.305	-101.030	98.646	98.348	83.745
261164.891	11.623	25.630	-102.222	25.928	-59.009	113.547	124.872	94.175
261164.899	-47.386	-28.610	-157.952	-25.630	-117.719	98.944	96.560	95.367
261164.907	-13.709	2.384	-126.958	-0.298	-86.129	88.513	103.116	70.930
261164.915	-28.908	-19.073	-141.263	-27.418	-99.838	83.745	92.387	83.148
261164.923	-43.213	-32.783	-151.396	-41.425	-115.037	72.420	73.016	57.220
261164.931	7.153	19.372	-112.355	6.855	-69.141	90.003	116.825	75.698
261164.939	-34.273	-20.266	-146.925	-31.590	-107.884	82.850	84.341	83.447
261164.947	-4.470	8.941	-117.123	0.298	-79.870	81.658	92.685	64.969
261164.955	-29.206	-14.007	-144.839	-26.226	-101.924	81.956	87.023	78.678
261164.963	-39.935	-24.736	-148.118	-36.359	-114.143	70.333	75.102	61.095
261164.971	-4.768	7.153	-120.997	-4.172	-84.043	79.572	112.057	65.267
261164.979	-44.107	-32.485	-152.588	-43.511	-120.103	80.168	84.937	75.698
261164.987	-17.881	-7.749	-130.236	-20.862	-93.579	72.718	81.658	49.472
261164.995	-33.081	-22.948	-149.012	-32.187	-104.308	75.996	82.850	71.228
261165.003	-43.213	-27.418	-152.290	-39.041	-116.825	67.949	70.930	57.817
261165.011	-10.729	4.172	-125.170	-10.133	-85.831	81.658	105.500	64.969
261165.019	-57.817	-42.617	-164.211	-54.836	-130.236	70.333	76.592	63.181
261165.027	-19.372	-2.980	-128.150	-15.795	-94.175	68.843	90.301	47.684
261165.035	-30.398	-21.160	-145.733	-30.994	-105.202	78.380	98.944	75.400
261165.043	-36.955	-24.736	-144.243	-31.888	-108.480	72.718	66.161	56.922
261165.051	3.874	18.179	-109.375	3.278	-67.949	87.917	102.222	62.883
261165.059	-43.809	-29.504	-153.482	-40.233	-112.951	83.447	89.407	75.698
261165.067	1.192	11.921	-109.673	8.345	-69.141	97.156	123.680	70.632
261165.057	-34.571	-23.246	-143.349	-28.908	-102.222	73.016	80.764	58.711
261165.065	-55.134	-37.551	-156.164	-47.982	-121.593	52.154	47.982	23.246
261165.073	-14.901	0.000	-124.276	-9.239	-83.148	65.565	84.341	42.617
261165.081	-55.134	-41.127	-158.846	-48.578	-120.103	62.287	66.161	59.605
261165.089	-13.709	1.192	-117.123	-11.027	-81.062	73.612	96.560	46.194
261165.097	-22.352	-11.623	-125.766	-21.160	-86.725	72.122	97.156	58.413
261165.105	-46.492	-32.187	-146.329	-39.041	-110.865	47.684	51.260	30.100
261165.113	-24.736	-11.325	-128.448	-24.736	-87.321	58.413	79.870	39.637
261165.121	-64.969	-48.876	-160.635	-57.817	-123.680	56.326	59.903	53.644
261165.129	-16.987	-1.788	-113.547	-9.239	-77.486	67.353	88.513	47.386
261165.137	-34.571	-22.054	-129.938	-29.504	-93.579	67.949	87.917	67.055
261165.145	-49.174	-35.763	-141.561	-44.703	-109.076	50.068	50.962	34.571
261165.153	-8.941	3.576	-106.692	-8.047	-70.333	70.035	98.348	50.366
261165.161	-59.307	-45.002	-147.521	-51.260	-117.421	48.578	53.048	47.088
261165.169	-12.517	-1.192	-104.606	-10.431	-71.526	63.181	82.850	41.723
261165.177	-21.458	-14.305	-118.315	-19.670	-81.658	67.651	87.023	62.287
261165.185	-38.743	-24.438	-132.322	-31.292	-99.838	47.982	50.962	28.610
261165.193	-12.517	-2.384	-111.759	-8.047	-78.082	51.856	73.314	25.928
261165.201	-51.856	-42.915	-141.263	-47.386	-110.865	45.002	53.048	40.233
261165.209	-16.689	-5.066	-106.990	-14.603	-76.592	52.750	75.400	29.802
261165.217	-38.147	-23.842	-130.236	-34.273	-98.646	49.174	61.989	37.849
261165.225	-31.888	-16.093	-115.633	-25.034	-93.579	38.147	47.684	21.756
261165.233	1.192	12.517	-88.513	-0.596	-58.413	56.624	88.513	38.445
261165.241	-41.127	-28.610	-122.190	-40.233	-95.963	50.366	55.134	49.770
261165.249	-12.815	1.490	-93.281	-11.623	-67.651	46.492	67.055	14.901
261165.257	-29.504	-19.372	-110.865	-30.398	-82.850	47.684	59.605	36.955
261165.265	-38.743	-27.120	-112.653	-36.359	-92.089	42.617	53.644	24.140
261165.273	-4.172	4.470	-82.254	-5.960	-57.518	49.472	72.718	34.869
261165.291	-55.730	-46.492	-128.448	-57.518	-104.606	22.650	24.438	27.418
261165.299	-17.285	-7.153	-93.281	-17.285	-68.545	30.696	50.366	15.795
261165.307	-34.869	-28.610	-110.865	-38.147	-84.639	39.637	54.836	39.339
261165.315	-42.021	-33.081	-110.567	-44.405	-89.705	34.273	50.664	23.246
261165.323	-3.278	7.451	-75.996	-8.047	-53.048	53.942	90.003	37.849
261165.331	-54.836	-45.598	-119.805	-54.836	-103.712	25.332	34.869	23.842
261165.339	-12.219	-1.490	-80.466	-14.305	-62.585	36.657	54.240	17.583
261165.347	-35.167	-25.928	-103.116	-40.531	-83.148	38.147	42.617	33.975
261165.355	-48.578	-36.359	-108.480	-46.790	-96.262	17.583	7.749	4.470
261165.363	-8.941	0.298	-77.784	-10.729	-59.903	39.041	63.479	14.901
261165.371	-49.174	-40.233	-109.971	-51.856	-97.156	32.783	38.147	26.226
261165.379	-4.768	4.470	-68.843	-9.835	-55.432	36.359	53.346	22.054
261165.387	-39.041	-32.485	-106.394	-45.002	-89.109	25.034	30.696	25.928
261165.395	-35.763	-27.716	-98.348	-39.935	-86.129	20.266	18.477	4.172
261165.403	-2.086	2.682	-68.545	-8.047	-54.538	36.657	60.499	16.391
261165.411	-54.240	-47.088	-112.057	-61.095	-104.308	22.650	20.564	16.093
261165.419	-3.874	3.576	-63.181	-13.411	-52.452	41.425	59.605	16.689
261165.427	-24.438	-19.073	-84.043	-31.888	-69.141	37.253	50.664	30.696
261165.435	-32.485	-23.842	-85.831	-39.339	-77.486	29.504	39.637	15.795
261165.443	2.086	4.172	-59.605	-7.451	-44.703	41.723	66.161	27.716
261165.451	-41.127	-37.849	-94.473	-43.213	-84.937	32.187	45.002	29.802
261165.459	-5.662	1.788	-59.009	-8.643	-52.452	40.829	64.373	13.411
261165.467	-27.120	-21.458	-78.082	-37.551	-69.439	39.339	44.703	37.253
261165.475	-36.359	-31.292	-81.956	-46.790	-76.890	19.670	27.418	5.066
261165.483	-7.451	-1.192	-62.287	-13.113	-52.452	27.120	57.518	7.451
261165.491	-55.432	-47.684	-102.520	-57.817	-94.473	19.073	18.775	19.670
261165.499	-9.239	-0.894	-55.730	-8.047	-50.068	31.888	54.538	10.133
261165.507	-16.689	-11.027	-64.969	-14.305	-56.028	40.531	51.558	29.802
261165.515	-31.292	-25.034	-74.208	-32.485	-70.632	30.696	27.716	10.431
261165.523	-10.133	-6.855	-57.817	-14.007	-47.386	39.637	63.777	16.093
261165.531	-49.472	-42.319	-89.407	-45.896	-85.235	28.014	36.955	19.968
261165.539	1.192	8.047	-40.829	1.490	-34.869	39.637	66.459	9.835
261165.545	-19.372	-14.305	-64.075	-21.756	-53.346	36.955	42.319	28.014
261165.553	-28.908	-22.650	-63.181	-30.100	-61.691	30.994	30.696	12.219
261165.561	10.133	14.603	-28.610	4.768	-24.140	50.068	73.612	13.411
261165.569	-41.425	-36.657	-75.102	-41.723	-73.314	21.160	14.901	0.000
261165.577	7.451	13.113	-28.908	7.749	-27.120	36.955	51.558	4.172
261165.585	-14.007	-11.921	-50.664	-14.305	-44.405	36.955	45.300	22.352
261165.593	-16.689	-12.219	-41.723	-16.391	-41.425	24.736	32.187	3.576
261165.601	11.921	14.007	-20.862	8.047	-12.517	38.445	64.671	12.815
261165.609	-35.167	-31.292	-62.585	-34.869	-59.009	27.716	20.862	17.285
261165.617	10.431	12.815	-21.756	7.749	-15.199	31.292	42.021	1.192
261165.625	5.662	6.557	-25.332	1.192	-16.689	45.598	55.134	31.888
261165.633	-12.219	-12.219	-38.147	-11.623	-36.061	19.372	17.583	-4.768
261165.641	15.199	13.709	-13.113	14.603	-8.643	30.994	56.922	0.596
261165.649	-35.167	-31.888	-50.068	-35.167	-53.346	10.431	14.305	-1.490
261165.657	30.696	30.398	8.643	28.312	11.921	34.273	50.962	12.219
261165.665	8.345	3.874	-15.199	5.066	-10.133	34.571	47.982	22.352
261165.673	-6.557	-8.047	-22.054	-8.643	-24.140	17.583	31.292	-10.729
261165.681	22.054	21.160	1.192	16.689	2.980	32.783	69.737	8.047
261165.689	-21.458	-19.372	-34.571	-22.352	-38.743	21.458	28.312	18.775
261165.697	11.325	11.325	-3.576	8.345	-8.047	28.908	43.213	7.153
261165.705	-10.431	-10.431	-27.716	-12.517	-21.756	28.610	41.127	19.372
261165.713	-21.756	-17.583	-33.081	-19.670	-35.465	19.968	28.312	-8.941
261165.721	7.153	8.941	-10.431	9.835	-7.451	38.445	64.969	7.451
261165.729	-30.696	-27.120	-42.617	-24.140	-42.617	36.657	37.551	15.199
261165.737	13.411	15.795	-3.576	17.881	-0.596	47.982	70.035	18.179
261165.745	-8.941	-8.941	-26.524	-6.557	-20.266	45.598	56.922	31.292
261165.753	-19.372	-15.795	-27.716	-16.689	-29.802	33.081	40.531	6.855
261165.761	14.305	15.199	-2.980	13.709	3.576	39.339	61.095	13.709
261165.768	-21.160	-21.458	-30.100	-21.160	-26.822	28.014	23.544	20.862
261165.776	22.352	24.736	11.921	22.054	11.325	37.849	58.115	11.623
261165.784	-9.239	-6.855	-19.073	-8.941	-22.352	32.485	53.942	20.266
261165.792	-18.775	-11.921	-21.458	-13.411	-30.398	10.133	27.716	-9.835
261165.800	3.278	3.874	-2.980	2.980	-9.835	17.881	37.253	-5.662
261165.808	-38.445	-35.465	-34.571	-30.696	-49.472	15.497	12.517	3.576
261165.816	5.066	9.239	8.047	8.643	-9.239	23.544	38.147	-4.470
261165.824	-26.226	-24.438	-21.756	-31.292	-39.935	16.689	30.100	5.662
261165.832	-33.379	-25.630	-24.140	-35.763	-52.452	0.596	10.431	-20.564
261165.840	7.451	11.623	9.537	2.682	-11.027	27.120	57.220	9.537
261165.848	-39.041	-33.677	-27.418	-45.896	-55.134	18.179	28.014	9.239
261165.856	4.172	7.749	11.027	-6.557	-16.093	17.881	42.617	-18.477
261165.864	-24.438	-21.458	-18.477	-35.465	-47.982	22.650	39.339	7.451
261165.872	-41.723	-34.869	-28.312	-51.856	-66.757	4.172	14.901	-12.219
261165.880	-8.345	-2.682	0.298	-22.650	-33.975	15.199	38.147	-0.298
261165.888	-50.366	-44.107	-29.504	-63.181	-73.910	-4.172	2.980	-12.815
261165.896	-9.537	-5.066	5.960	-23.544	-36.955	5.066	41.127	-24.438
261165.904	-44.703	-39.637	-29.206	-60.499	-73.016	-8.643	4.470	-13.411
261165.912	-45.300	-36.657	-22.948	-58.711	-77.784	-15.199	-9.537	-27.418
261165.920	-19.073	-16.689	-3.278	-45.002	-54.240	-4.768	23.842	-18.179
261165.928	-80.168	-80.466	-55.134	-108.182	-113.249	-39.041	-37.551	-43.213
261165.936	-42.021	-43.213	-18.179	-66.161	-80.168	-28.014	-8.047	-61.095
261165.944	-65.565	-64.373	-40.233	-89.109	-106.096	-18.477	2.980	-24.438
261165.952	-74.804	-70.333	-41.127	-95.367	-115.931	-37.849	-28.610	-52.750
261165.960	-20.266	-16.987	7.749	-43.511	-61.691	3.874	36.955	-7.451
261165.968	-60.797	-54.240	-25.034	-82.254	-100.434	-11.325	-8.345	-12.517
261165.976	-41.723	-38.445	-11.623	-68.247	-84.639	-37.253	-11.027	-67.055
261165.984	-64.969	-64.373	-36.359	-93.281	-102.520	-43.809	-31.292	-42.915
261165.991	-60.797	-54.836	-26.524	-78.380	-97.156	-38.743	-34.869	-50.962
261165.999	-20.564	-22.650	5.066	-44.703	-56.922	-0.298	22.650	-8.643
261166.007	-77.486	-81.658	-46.790	-100.136	-112.653	-30.100	-34.869	-29.504
261166.015	-29.802	-31.590	-1.192	-50.068	-68.545	-26.226	-2.086	-53.346
261166.023	-51.558	-53.644	-22.352	-71.228	-84.341	-25.928	-13.709	-29.802
261166.031	-45.598	-48.280	-11.623	-62.883	-74.208	-32.187	-25.332	-48.578
261166.039	-10.431	-15.199	13.709	-30.100	-38.445	-15.795	13.709	-26.822
261166.047	-57.220	-59.903	-30.696	-76.294	-83.745	-39.041	-30.398	-41.425
261166.055	-7.451	-11.921	18.179	-22.650	-35.465	-22.650	4.768	-43.213
261166.063	-29.206	-36.657	-3.278	-46.194	-53.644	-15.497	-18.477	-21.756
261166.071	-29.206	-31.888	2.682	-43.213	-52.154	-24.438	-32.485	-43.213
261166.079	0.894	-7.451	29.206	-20.266	-19.073	-11.623	0.894	-33.379
261166.087	-32.187	-39.935	6.855	-46.492	-47.088	-15.199	-23.842	-22.054
261166.095	-1.490	-6.855	30.696	-15.199	-20.266	-23.544	-14.603	-44.107
261166.103	-22.948	-27.418	11.623	-29.504	-36.955	-18.775	-20.266	-17.285
261166.111	-17.285	-19.968	21.756	-23.544	-30.994	-25.332	-28.014	-46.194
261166.119	1.490	-7.153	32.485	-11.325	-12.517	-17.583	1.788	-42.617
261166.127	-46.194	-53.942	-7.749	-52.750	-55.432	-29.802	-28.312	-37.551
261166.135	1.788	-5.364	37.253	-2.682	-11.921	-18.477	-2.682	-45.300
261166.143	-18.477	-25.332	17.583	-25.034	-29.802	-15.795	-2.086	-30.100
261166.151	-25.928	-25.332	11.921	-25.034	-37.849	-33.975	-32.187	-57.817
261166.159	-0.298	-5.662	31.292	-8.047	-10.431	-23.246	-14.901	-30.696
261166.167	-39.339	-45.300	-4.172	-45.002	-44.703	-37.253	-48.578	-38.147
261166.175	-0.596	-8.345	30.696	-7.451	-6.557	-32.485	-16.689	-54.836
261166.183	-33.975	-40.233	-1.490	-40.829	-35.167	-29.802	-15.199	-38.445
261166.191	-38.147	-41.127	-6.258	-37.253	-40.829	-46.790	-36.657	-65.863
261166.199	-1.192	-5.364	20.862	-3.278	-3.874	-30.994	-21.458	-46.194
261166.207	-52.154	-55.730	-20.564	-54.538	-51.558	-50.962	-62.287	-52.750
261166.227	-11.921	-16.689	16.987	-16.689	-14.007	-35.167	-26.524	-59.307
261166.235	-40.233	-46.194	-10.431	-47.982	-39.935	-31.888	-28.908	-42.021
261166.243	-25.630	-28.312	8.941	-26.226	-22.948	-33.677	-27.716	-56.028
261166.251	5.960	0.000	31.292	-0.298	7.749	-23.842	-8.941	-39.339
261166.259	-43.213	-47.088	-12.815	-45.598	-39.935	-41.127	-49.472	-40.829
